-4.759 
n/a 
n/a 
n/a 
n/a 
-4.759 
n/a 
n/a 
n/a 
n/a 
-4.759 
n/a 
n/a 
n/a 
n/a 
-4.759 
n/a 
n/a 
n/a 
n/a 
-3.8735 -2.8645 -4.26 -3.1435 -4.1355 -2.356 -1.4985 -3.4635 -3.959 0 -4.756 0 -4.9595 0 -3.8005 0 -5.016 0 -4.779 -1.756 -4.4935 
-6.143 -6.620501 -7.523001 -7.0005 -6.123001 -3.1615 -3.6265 -6.4495 -3.959 -4.756 -4.756 -4.9595 -4.9595 -3.8005 -3.8005 -5.016 -5.016 -4.779 -6.564 -5.9875 
-9.9305 -8.365001 -11.717 -7.4485 -7.117001 -5.1965 -6.456 -6.4495 -7.1995 -4.756 -7.6975 -4.9595 -7.773001 -3.8005 -8.605 -5.016 -7.6355 -6.564 -8.028001 
-11.681 -12.7224 -12.165 -8.431001 -9.992001 -8.2675 -6.456 -9.023001 -7.1995 -7.6975 -7.6975 -7.773001 -7.773001 -8.605 -8.605 -7.6355 -8.6105 -8.028001 
-16.0384 -13.1704 -13.1475 -11.6048 -13.063 -8.2675 -9.0325 -9.023001 -9.986501 -7.6975 -9.790001 -7.773001 -10.2645 -8.605 -9.867001 -8.6105 -9.694 
-3.8735 -3.4465 -3.1435 -4.1355 -2.356 -8.497001 0 -10.283 0 -3.8005 0 -4.779 0 -5.016 0 -1.756 -8.4635 
-7.5585 -6.689 -7.0005 -6.123001 -10.8025 -8.497001 -10.283 -10.283 -3.8005 -3.8005 -4.779 -4.779 -5.016 -5.016 -1.756 -10.1595 
-11.5722 -10.2985 -7.4485 -15.3643 -10.8025 -19.0498 -10.283 -14.0835 -3.8005 -7.781 -4.779 -7.3545 -5.016 -7.2665 -10.1595 
-15.1817 -10.7465 -17.1886 -15.3643 -21.3553 -19.0498 -14.0835 -14.0835 -7.781 -7.781 -7.3545 -7.3545 -7.2665 -16.3298 
-15.6297 -20.4866 -17.1886 -25.9171 -21.3553 -22.8503 -14.0835 -18.064 -7.781 -9.153001 -7.3545 -8.186501 -16.3298 
-3.8735 -4.2265 -4.887 -2.356 -4.756 0 -4.9595 0 -3.8005 0 -5.016 0 -4.779 -1.756 -4.4935 0 
-8.37 -7.942 -6.549 -7.547001 -4.756 -4.9595 -4.9595 -3.8005 -3.8005 -5.016 -5.016 -4.779 -6.564 -5.9875 -4.4935 
-9.9725 -7.99 -9.2805 -7.547001 -7.6975 -4.9595 -7.773001 -3.8005 -8.605 -5.016 -7.6355 -6.564 -8.028001 -5.9875 
-10.218 -10.3345 -9.2805 -9.769001 -7.6975 -7.773001 -7.773001 -8.605 -8.605 -7.6355 -8.6105 -8.028001 -8.028001 
-12.7447 -10.3345 -11.9419 -9.769001 -9.790001 -7.773001 -10.2645 -8.605 -9.867001 -8.6105 -9.694 -8.028001 
-3.8735 -4.2265 -1.4985 -4.887 -2.356 -4.756 0 -4.9595 0 -3.8005 0 -5.016 0 -4.779 -1.756 -4.4935 0 
-8.37 -5.754 -5.927 -6.549 -7.547001 -4.756 -4.9595 -4.9595 -3.8005 -3.8005 -5.016 -5.016 -4.779 -6.564 -5.9875 -4.4935 
-9.493 -10.27 -7.685 -9.2805 -7.547001 -7.6975 -4.9595 -7.773001 -3.8005 -8.605 -5.016 -7.6355 -6.564 -8.028001 -5.9875 
-14.0646 -10.4055 -10.092 -9.2805 -9.769001 -7.6975 -7.773001 -7.773001 -8.605 -8.605 -7.6355 -8.6105 -8.028001 -8.028001 
-14.2001 -12.8125 -10.092 -11.9419 -9.769001 -9.790001 -7.773001 -10.2645 -8.605 -9.867001 -8.6105 -9.694 -8.028001 
