-4.759 
n/a 
n/a 
n/a 
n/a 
-4.759 
n/a 
n/a 
n/a 
n/a 
-4.759 
n/a 
n/a 
n/a 
n/a 
-4.759 
n/a 
n/a 
n/a 
n/a 
-4.3235 0 -1.8085 -5.4235 -4.281 -5.502 -5.2735 -5.794 -1.4985 -5.097 -1.7565 -3.982 -2.229 -12.16972 -3.6205 0 
-4.3235 -1.8085 -6.604 -8.534 -8.774 -8.607 -11.8413 -6.465 -5.756001 -5.5805 -5.614 -5.746 -14.99372 -15.79022 -3.6205 
-6.6815 -6.604 -9.392 -13.1678 -12.0654 -15.3886 -12.5123 -9.696 -5.8375 -10.4496 -6.602 -19.26372 -18.61422 -15.79022 
-11.6884 -9.392 -14.0258 -16.4592 -18.847 -16.0596 -15.7433 -10.429 -10.916 -11.4376 -20.54292 -22.88422 -18.61422 
-14.4764 -14.0258 -17.3172 -23.2408 -19.518 -19.2906 -16.4763 -15.5075 -11.904 -25.37852 -24.16342 -22.88422 
-4.3235 0 -5.4235 -5.502 -5.2735 -4.5445 -1.4985 -3.399 -4.397 -1.7565 -3.982 -2.229 -12.16972 -4.397 
-4.3235 -5.4235 -9.377501 -8.607 -9.615001 -5.716001 -4.428 -8.845501 -5.847 -5.614 -5.746 -14.99372 -16.56672 
-10.361 -9.377501 -9.9905 -13.1623 -10.8455 -8.4835 -9.2255 -9.501 -10.733 -6.602 -19.26372 -19.39072 
-14.778 -9.9905 -14.5458 -14.3928 -13.613 -13.363 -9.5825 -14.7448 -11.721 -20.54292 -23.66072 
-15.391 -14.5458 -15.7763 -17.1603 -18.4925 -13.72 -15.0331 -15.7328 -25.66192 -24.93992 

n/a 
n/a 
n/a 
n/a 
-4.0045 
n/a 
n/a 
n/a 
n/a 
