-4.759 
n/a 
n/a 
n/a 
n/a 
-4.759 
n/a 
n/a 
n/a 
n/a 
-4.759 
n/a 
n/a 
n/a 
n/a 
-4.759 
n/a 
n/a 
n/a 
n/a 
-2.7295 -2.7765 -3.619 -1.4985 -3.3885 -1.934 -2.8705 -3.839 0 -2.9325 -2.7295 -3.465 -2.229 -1.7695 -3.394 
-4.065 -5.221001 -4.707 -4.494 -5.212 -4.1055 -7.104 -3.839 -2.9325 -4.3825 -4.7235 -6.899 -4.907001 -4.59 
-6.7075 -6.419001 -6.1025 -6.212501 -7.672 -8.177001 -7.104 -7.094501 -4.3825 -5.992 -9.014 -7.227 -7.4285 
-7.668 -8.112 -7.5065 -8.553 -10.749 -8.177001 -9.3955 -8.9075 -5.992 -9.6155 -10.0605 -9.854 
-9.8915 -9.144001 -10.213 -12.1894 -10.749 -10.8295 -12.2979 -10.746 -9.6155 -10.998 -12.8731 
-3.16 -4.031 -3.3425 -1.4985 -3.5965 -3.331 
-7.446 -6.914001 -4.0125 -4.746 -5.3215 
-9.6285 -7.7355 -6.721 -6.985001 
-10.0465 -10.164 -8.6785 
-13.4982 -12.6793 
-3.5025 -3.664 -2.9645 -1.7695 -3.766 -3.5205 -4.161 -1.7695 -3.047 -1.4985 -3.776 -3.331 -3.0785 
-5.7235 -6.543 -4.905 -5.523 -8.709001 -7.1155 -5.9605 -3.768 -4.095 -4.8975 -6.708 -6.189 
-8.1335 -8.373501 -8.746 -10.1675 -12.4854 -8.441 -8.099001 -4.6855 -7.403 -7.918 -9.964001 
-9.923 -12.5685 -13.7057 -13.9439 -13.8109 -10.8655 -8.567 -8.022 -10.8617 -11.5476 
-14.4388 -17.5282 -17.4821 -15.2694 -16.2354 -11.3335 -12.7763 -11.7371 -14.4913 
-3.16 -3.586 -3.9495 -1.934 -2.8705 -4.161 -2.0935 -1.4985 -4.1895 -1.7565 -3.331 
-6.882 -7.543 -5.3375 -4.1055 -6.618 -6.1235 -2.9725 -6.267 -7.7535 -5.121 
-12.3598 -9.643001 -7.1905 -8.111001 -8.371 -7.2025 -7.382 -10.085 -11.748 
-14.4598 -11.9004 -12.3488 -10.0155 -9.441 -12.0566 -11.6506 -14.0795 
-16.7172 -17.0587 -14.2533 -11.2717 -14.4043 -16.3252 -15.6451 
