-4.759 
n/a 
n/a 
n/a 
n/a 
-4.759 
n/a 
n/a 
n/a 
n/a 
-4.759 
n/a 
n/a 
n/a 
n/a 
-4.759 
n/a 
n/a 
n/a 
n/a 
-4.3055 -6.341 -5.585 0 -4.3725 -1.934 -4.2405 -4.088 0 
-7.64 -9.0455 -5.585 -4.3725 -5.022501 -5.769001 -7.6875 -4.088 
-10.621 -9.0455 -9.894501 -5.022501 -9.044001 -8.929001 -7.6875 
-10.621 -13.3892 -10.5935 -9.044001 -12.3962 -8.929001 
-14.9647 -14.0882 -14.615 -12.3962 -12.3962 
-2.743 -5.585 -4.3055 -5.923 -2.5045 -1.8085 -12.16972 -3.0365 -2.4945 -2.743 -5.585 -4.06 -4.088 
-8.1395 -8.693 -7.0665 -8.089001 -3.3625 -14.47662 -15.20622 -3.688 -6.231501 -8.1395 -8.6305 -8.894001 
-12.3783 -9.5435 -8.9585 -9.106001 -17.01022 -17.51312 -15.85772 -6.712501 -12.1088 -12.3158 -13.7243 
-13.2288 -12.5453 -9.755501 -22.87432 -20.04672 -18.16462 -18.88222 -12.7826 -16.2851 -17.4096 
-16.2306 -13.3423 -23.74602 -25.91082 -20.69822 -21.18912 -24.95232 -16.9589 -21.3789 
-5.923 -8.872001 -2.4945 -6.0535 -2.5045 -12.16972 -1.934 -4.2405 -12.16972 
-15.5164 -11.5319 -8.772 -8.849 -15.59162 -14.10372 -5.769001 -17.47202 
-18.1763 -17.8094 -11.7647 -22.10632 -17.52562 -17.93872 -19.68572 
-24.4538 -20.8021 -25.02202 -24.04032 -21.36062 -31.85544 
-27.4465 -34.05942 -26.95602 -27.87532 -35.27734 
-1.934 -4.2405 -5.585 -5.923 -2.186 -4.06 -2.5045 
-5.769001 -8.988501 -9.923 -7.6045 -4.672 -4.933001 
-11.2022 -13.4223 -11.7275 -9.9835 -5.491 
-15.636 -15.2268 -14.1065 -10.665 
-17.4405 -17.6058 -14.788 
