-4.759 
n/a 
n/a 
n/a 
n/a 
-4.759 
n/a 
n/a 
n/a 
n/a 
-4.759 
n/a 
n/a 
n/a 
n/a 
-4.759 
n/a 
n/a 
n/a 
n/a 
-8.392 -5.3285 -3.7075 0 
-14.2515 -10.1345 -3.7075 
-19.0575 -10.1345 
-19.0575 
n/a 
-9.8955 -3.757 -3.7075 
-13.9967 -8.070001 
-18.3097 
n/a 
n/a 
0 -8.392 0 -3.757 0 -2.4265 -4.508 -4.4515 
-8.392 -8.392 -3.757 -3.757 -2.4265 -5.8625 -9.9895 
-8.392 -12.68 -3.757 -5.6705 -5.8625 -11.5698 
-12.68 -12.68 -5.6705 -9.303 -11.5698 
-12.68 -14.5935 -9.303 -15.1595 
0 -7.701 -5.964 0 -4.4615 -1.4985 -3.098 -1.7565 -3.7075 0 
-7.701 -14.1958 -5.964 -4.4615 -5.238 -4.3095 -4.3615 -5.7275 -3.7075 
-14.1958 -14.1958 -11.0561 -5.238 -7.358 -4.5915 -8.1805 -5.7275 
-14.1958 -19.2879 -11.8326 -7.358 -7.447001 -8.4405 -8.1805 
-19.2879 -20.0644 -13.9526 -7.447001 -12.6148 -8.4405 
