-4.759 
n/a 
n/a 
n/a 
n/a 
-4.759 
n/a 
n/a 
n/a 
n/a 
-4.759 
n/a 
n/a 
n/a 
n/a 
-4.759 
n/a 
n/a 
n/a 
n/a 
-6.14 -3.135 -3.6885 -3.307 -1.7565 -6.9515 -4.8915 -1.7695 -3.866 -2.3335 -4.5335 -6.004 0 
-9.4715 -6.564 -8.585501 -4.8035 -8.8555 -12.4442 -6.7925 -5.982501 -5.877501 -7.397 -8.8655 -6.004 
-13.1189 -12.054 -9.887501 -12.8137 -14.879 -14.3452 -10.76 -8.441001 -11.7856 -12.1556 -8.8655 
-18.6089 -13.356 -18.0247 -18.8372 -16.78 -18.3127 -13.2185 -14.6211 -16.5442 -12.1556 
-19.9109 -21.4932 -24.0482 -20.7382 -20.7475 -20.7712 -19.3986 -19.3797 -16.5442 
-9.5775 -6.517 -9.807501 -7.549 -12.16972 -12.16972 0 -12.16972 -12.16972 
-16.5405 -16.8345 -17.9379 -20.61052 -24.33944 -12.16972 -12.16972 -24.33944 
-26.858 -24.9649 -30.99942 -32.78024 -24.33944 -24.33944 -24.33944 
-34.9884 -38.02642 -43.16914 -32.78024 -36.50916 -36.50916 
-48.04992 -50.19614 -43.16914 -44.94996 -48.67888 
-10.546 
n/a 
n/a 
n/a 
n/a 
-3.642 -3.535 -3.7745 -4.4825 -3.961 0 -3.1495 -3.213 -3.535 -4.029 -4.613 -1.7695 -4.617 -3.535 -4.613 -3.7075 -3.9285 0 
-6.662001 -7.52 -6.7955 -7.833 -3.961 -3.1495 -6.684 -7.328 -7.243 -9.8465 -5.965001 -5.0525 -7.9745 -9.250501 -8.095501 -8.013 -3.9285 
-10.9744 -10.912 -10.76 -7.833 -7.3365 -6.684 -11.3886 -11.4756 -13.1043 -11.2565 -9.581 -8.590501 -14.0414 -12.8656 -12.528 -8.013 
-14.3664 -14.8765 -10.76 -11.9765 -11.0716 -11.3886 -15.5362 -17.3369 -14.5143 -14.8725 -13.1706 -14.6828 -17.6565 -17.2981 -12.528 
-18.3309 -14.8765 -14.9035 -15.7116 -15.7762 -15.5362 -21.3975 -18.7469 -18.1303 -18.4621 -19.2629 -18.2979 -22.089 -17.2981 
