-4.759 
n/a 
n/a 
n/a 
n/a 
-4.759 
n/a 
n/a 
n/a 
n/a 
-4.759 
n/a 
n/a 
n/a 
n/a 
-4.759 
n/a 
n/a 
n/a 
n/a 
-1.4985 -5.3745 -4.891 -1.756 -3.45 -3.0695 -5.192 -2.356 -3.277 -3.115 -1.4985 -4.693 -5.128 -1.756 -1.4985 -5.236 -3.711 -2.4945 -3.849 -5.978 
-6.2355 -7.061501 -6.593 -4.834 -4.273 -6.306001 -6.552501 -4.76 -5.9675 -4.2305 -5.6745 -9.404001 -6.297501 -3.0405 -6.451 -10.8845 -5.525001 -5.410501 -8.861 
-7.2945 -9.1105 -9.783 -5.491 -7.233 -7.728001 -8.1745 -7.5205 -7.0325 -8.800001 -10.025 -10.376 -7.4785 -8.066 -12.7763 -12.6985 -8.201 -9.7215 
-9.2305 -12.6981 -10.4375 -8.4795 -8.9865 -9.274501 -11.2524 -8.573 -11.7598 -13.1705 -10.997 -11.557 -12.7576 -14.4743 -14.5903 -15.3745 -12.54 
-12.8817 -13.3526 -13.426 -9.8625 -10.2375 -12.5182 -12.3049 -13.3925 -16.1303 -14.1425 -12.178 -16.8361 -19.1659 -16.2883 -17.2663 -19.7135 
-2.5685 -9.0825 0 -1.4985 -4.1355 -3.9665 -4.744 -3.0695 -3.251 -4.424 -1.934 -3.8275 -1.756 -3.499 -2.5195 -5.7895 -5.623 -2.4945 -3.849 -3.4155 -4.967 0 
-12.6066 -9.0825 -1.4985 -5.2415 -7.916 -8.015 -6.1715 -4.7295 -6.013 -5.195 -5.911 -5.1855 -5.4195 -5.7205 -7.9775 -12.2601 -8.299 -5.410501 -7.2485 -7.8805 -4.967 
-12.6066 -10.6668 -5.2415 -8.712501 -12.4095 -9.516001 -7.348001 -6.896 -6.843 -8.2375 -6.844 -9.281 -7.5335 -11.6953 -15.0171 -14.9361 -10.757 -8.910501 -12.0297 -7.8805 
-14.1909 -14.4098 -8.712501 -13.6242 -13.9105 -10.5995 -8.758 -7.548501 -9.439501 -9.159 -11.4297 -12.079 -13.8595 -18.7349 -17.6931 -17.3941 -14.257 -13.9133 -12.0297 
-17.9339 -17.8808 -13.6242 -15.1252 -14.994 -12.0095 -9.071001 -9.806001 -10.719 -13.9267 -14.2277 -18.405 -20.8991 -21.4109 -20.1511 -20.8941 -19.2598 -13.9133 
-5.211 -5.192 -2.356 -5.1845 -5.7505 -4.6805 -4.891 -1.756 -2.8965 -5.211 -1.756 -3.499 -1.7565 -5.7895 -2.4945 -3.849 -5.1795 -5.211 
-8.709001 -6.552501 -7.8135 -12.2294 -10.9878 -10.784 -6.593 -3.751 -7.517 -6.483001 -5.4195 -4.306 -7.177501 -8.4425 -5.410501 -8.521001 -8.644501 
-10.238 -12.4654 -15.2074 -17.4667 -17.0913 -12.486 -7.9845 -8.5865 -8.8035 -9.297501 -5.677 -10.609 -9.522 -11.5507 -10.1815 -12.2574 
-16.1509 -19.8593 -20.4447 -23.5702 -18.7933 -13.8775 -13.64 -10.168 -11.7144 -9.344001 -12.3428 -12.9535 -12.6302 -16.3217 -14.1125 
-23.5448 -25.0966 -26.5482 -25.2722 -20.1848 -19.533 -15.2215 -13.0789 -11.7609 -15.9458 -14.6873 -16.0617 -17.4012 -20.2527 
-1.4985 -4.891 -1.7565 -5.1845 -8.622001 -1.756 -1.4985 -4.744 -3.0695 -3.918 -1.4985 -4.891 -1.756 -5.192 -1.756 -4.424 -1.934 -1.4985 -4.1355 -1.756 -1.4985 -3.499 -1.7565 -1.4985 -5.7895 -4.2995 -2.4945 -3.264 -1.7695 -2.489 -5.1795 -4.744 0 
-5.891001 -6.8725 -6.580501 -10.155 -10.7025 -3.0405 -5.761001 -6.1715 -6.2075 -5.135 -5.891001 -6.593 -6.48 -6.554 -5.698 -5.195 -2.6125 -5.2415 -6.050001 -3.0405 -4.967 -4.306 -2.4195 -7.297 -10.907 -6.826 -5.985001 -4.908 -3.1405 -6.685 -7.3725 -4.744 
-8.003501 -7.181 -10.4505 -12.4649 -11.987 -7.136 -6.988 -9.106501 -6.642001 -8.9515 -7.402 -10.7025 -8.003 -7.172501 -6.443 -6.055501 -6.703001 -6.593501 -7.101001 -6.457 -5.2225 -4.5175 -8.287001 -13.1045 -13.4335 -10.1855 -6.057 -5.5165 -7.1605 -10.31 -7.3725 
-10.347 -10.5035 -13.2668 -13.7494 -16.0825 -8.286 -10.2125 -9.3985 -10.0745 -10.4425 -11.6987 -12.2255 -9.0375 -7.783 -7.4065 -10.064 -8.561501 -7.612 -10.7947 -6.607 -5.4195 -10.673 -14.3601 -15.631 -16.793 -10.1975 -6.361001 -9.873501 -10.586 -10.31 
-12.8039 -13.6842 -14.5513 -17.8449 -17.2325 -11.6245 -10.605 -12.98 -11.5969 -14.7392 -13.2217 -13.26 -10.035 -8.4005 -11.6006 -12.0549 -9.640501 -11.4269 -10.9447 -6.7945 -11.7592 -16.7461 -16.8866 -18.9905 -16.805 -10.579 -10.3155 -13.283 -10.586 
