-4.759 
n/a 
n/a 
n/a 
n/a 
-4.759 
n/a 
n/a 
n/a 
n/a 
-4.759 
n/a 
n/a 
n/a 
n/a 
-4.759 
n/a 
n/a 
n/a 
n/a 
-2.5045 -4.021 -2.5045 -1.4985 -4.8345 -4.638 -1.4985 -4.153 -4.164 -2.3345 -1.4985 -4.828 -2.8645 -4.164 -3.222 -3.915 -4.828 -1.756 -3.563 -2.5045 -1.8085 -4.1865 -1.7695 -1.4985 -5.3955 -1.934 -1.4985 -3.7345 
-4.668 -4.6625 -3.583 -5.827001 -7.830501 -6.0125 -5.274 -8.701 -5.706 -3.233 -5.8065 -7.844501 -5.1465 -6.4655 -7.2445 -6.353001 -6.056 -5.2 -6.0515 -3.3625 -5.4995 -5.4485 -2.7955 -6.679501 -6.7705 -2.6125 -4.9965 
-4.676 -5.668001 -8.141001 -8.998001 -8.922501 -9.177 -9.706 -10.1595 -6.4695 -7.309501 -8.886001 -10.6605 -7.881001 -9.981 -8.558001 -7.56 -9.387 -7.843 -6.877 -6.8125 -6.3985 -6.1575 -8.0445 -8.0325 -7.521501 -5.795 
-5.681 -9.528001 -10.758 -9.906001 -12.2556 -13.7306 -11.2005 -10.923 -10.9676 -10.1895 -11.7388 -13.395 -11.7651 -11.2945 -9.5775 -10.634 -12.5676 -9.045501 -10.3475 -7.534 -6.8385 -10.1675 -9.328 -8.5 -9.4505 
-9.533 -12.4322 -11.666 -13.3583 -16.8092 -15.2251 -11.964 -15.4211 -13.8476 -13.0423 -14.4733 -17.2791 -13.0786 -12.314 -12.8045 -13.8146 -13.7701 -11.9256 -11.069 -8.187 -10.621 -11.451 -9.8555 -10.7038 
-2.7835 -4.8345 -4.4495 -1.4985 -4.395 -4.2635 -1.4985 -5.043 -1.756 -2.4265 -2.742 -2.489 -4.881 -1.7695 -3.915 -4.1865 -1.756 -4.024 -1.7695 -4.3645 
-9.052501 -9.4835 -5.274 -5.971001 -8.676001 -4.9175 -6.654 -6.553 -3.949 -4.095 -3.301 -5.63 -5.315 -5.7255 -7.0755 -5.5745 -5.4565 -4.5525 -6.626 
-13.8643 -10.9014 -9.948 -10.199 -9.512 -10.9366 -7.9775 -8.289001 -5.276 -4.601 -6.3685 -5.943 -8.827 -9.8295 -8.2675 -9.0075 -5.876 -9.6445 
-15.2822 -15.5754 -14.3248 -10.741 -15.5767 -12.2601 -10.15 -9.6955 -5.7665 -7.691 -6.628 -9.6855 -13.2802 -11.0639 -11.9345 -9.2895 -10.7175 
-19.9562 -19.9522 -14.8668 -16.8057 -16.9002 -14.4326 -11.7863 -10.588 -8.487 -7.908 -10.733 -14.2671 -14.5146 -14.7309 -12.2165 -14.466 
-2.7835 -4.8345 -4.4825 -1.934 -4.3355 -3.757 -2.925 -3.563 -1.8085 -4.1865 -1.7695 -1.4985 -4.3645 
-9.052501 -7.973001 -5.5625 -6.208 -8.751501 -5.8745 -6.238501 -4.4175 -5.4995 -5.4485 -2.7955 -5.8055 
-12.3538 -8.656 -9.176001 -11.5456 -11.1548 -9.408001 -7.403501 -6.860001 -6.3985 -6.1575 -7.015501 
-13.0368 -12.4237 -15.6104 -13.9489 -14.6883 -10.514 -8.9245 -6.999001 -6.8385 -8.988 
-16.8045 -18.8581 -18.0137 -17.4824 -15.7943 -12.035 -9.386001 -7.180501 -9.867001 
-3.2615 -1.4985 -4.8345 -2.8645 -4.548 0 -1.4985 -4.1115 -4.828 -2.3335 -2.4945 -3.8755 -3.851 -1.7695 -1.4985 -5.2425 -2.4945 -4.9385 -1.934 -1.4985 -3.519 -1.7565 -3.915 -4.4845 -1.756 -1.4985 -4.6035 -2.4945 -4.024 -1.7695 -1.4985 -4.3645 -1.934 -1.4985 -3.7345 
-4.032 -5.827001 -7.208 -5.4115 -4.548 -1.4985 -4.843 -7.447001 -6.711 -3.947 -5.463 -7.4515 -4.0015 -2.7955 -6.262 -8.337 -6.4355 -5.9335 -2.6125 -4.4155 -4.4175 -5.3895 -6.9125 -6.132 -3.0405 -6.043 -6.0185 -5.477 -4.5525 -2.7955 -5.8055 -6.797 -2.6125 -4.9965 
-6.7225 -7.925 -8.246 -5.4115 -6.099 -4.843 -8.2085 -9.414001 -7.639 -6.653 -8.607 -7.474 -4.5775 -7.7345 -8.846001 -12.5634 -7.1095 -6.4775 -4.8345 -4.839 -8.027 -8.4405 -8.123 -7.207001 -7.569 -7.171 -7.658 -5.947001 -5.08 -7.015501 -7.861 -7.5645 -5.795 
-9.3605 -10.0125 -8.246 -6.566 -9.972 -8.2085 -10.1465 -10.3555 -9.191501 -9.09 -8.6095 -7.9585 -9.153501 -10.6875 -13.2402 -13.2374 -7.544001 -8.535001 -4.9455 -8.203 -10.5325 -10.2585 -9.208 -12.0457 -8.541 -8.875001 -7.986001 -6.4205 -9.131001 -8.915501 -8.547501 -10.0575 
-10.39 -10.0125 -10.1345 -10.8042 -13.3375 -10.1465 -11.088 -11.908 -12.1939 -9.0915 -9.112 -12.6763 -12.2605 -15.0817 -13.9142 -13.6719 -9.465501 -8.560501 -8.4335 -10.9207 -12.3505 -11.3435 -14.1571 -13.0177 -10.185 -9.309001 -8.408501 -10.034 -10.7495 -9.6245 -10.76 
