-4.759 
n/a 
n/a 
n/a 
n/a 
-4.759 
n/a 
n/a 
n/a 
n/a 
-4.759 
n/a 
n/a 
n/a 
n/a 
-4.759 
n/a 
n/a 
n/a 
n/a 
-3.38 -5.154 -3.319 -1.7565 -3.188 -5.5615 -3.818 -5.029 -2.9805 -2.186 -2.871 -3.17 -6.4115 -3.188 -3.2825 -5.154 
-8.726 -9.045501 -4.165 -5.13 -9.08 -10.1995 -8.740001 -7.467501 -4.1635 -4.247 -6.419 -8.754 -9.776001 -6.731501 -8.2665 
-13.0141 -9.879001 -8.050501 -11.9186 -13.9226 -15.1215 -11.3621 -8.843 -6.139501 -8.109 -12.3108 -12.3389 -13.5563 -12.1547 
-13.8476 -14.2725 -15.2031 -16.7612 -18.8446 -17.7436 -12.7376 -10.8394 -10.0745 -14.2312 -15.8957 -16.1192 -18.9795 
-18.2411 -21.4251 -20.0457 -21.6832 -21.4667 -19.1191 -14.734 -14.7744 -16.1967 -17.8161 -19.676 -21.5424 
-3.4075 -5.154 -2.9805 -2.7415 -3.849 -2.5045 -1.756 -3.7905 -3.188 -3.2825 -5.154 
-7.620501 -7.341001 -4.004 -5.431 -6.305 -5.768001 -5.3495 -7.0815 -6.731501 -8.2665 
-9.778001 -8.0955 -6.6115 -7.509501 -9.347 -9.429001 -8.59 -10.2645 -12.1547 
-10.578 -11.0596 -8.473001 -11.0393 -13.3246 -12.7747 -11.872 -15.6877 
-13.5421 -12.9211 -12.3044 -15.0169 -16.6703 -16.0567 -17.2952 
-2.9805 -2.186 -4.2815 -1.7695 -2.264 -1.4985 -3.2825 -5.154 -4.658 -1.934 -3.188 -1.756 -3.074 -4.1205 -2.5045 -3.4075 -5.154 
-4.1635 -6.0975 -4.4915 -5.541 -2.9195 -3.712 -8.2665 -8.213 -5.9585 -5.387 -4.863 -4.566 -6.0935 -5.3175 -6.094501 -7.620501 
-8.365001 -6.382 -8.189 -6.3265 -5.741 -8.429501 -11.8177 -9.3725 -9.683001 -7.4795 -7.259 -8.208 -7.394001 -8.9345 -9.956501 
-8.486501 -10.459 -9.0305 -9.547501 -10.9741 -12.1693 -12.9772 -13.2994 -12.0055 -9.330501 -10.233 -9.6435 -11.2084 -12.8737 
-12.5695 -11.3005 -12.4967 -15.1746 -14.7139 -13.3288 -16.9041 -15.6219 -13.8565 -13.2607 -12.1421 -13.4985 -15.1476 
-2.9805 -2.8645 -3.845 -1.7565 -4.4695 -3.681 -3.115 -2.9805 -3.423 -3.8905 -6.756001 -3.989 -2.356 -3.091 -4.1495 -1.756 -5.91 -6.5085 -4.602 0 -2.9805 -2.7415 -2.871 -1.7565 -1.4985 -3.4155 -5.154 -1.934 -1.4985 -3.188 -1.7695 -2.489 -4.9805 0 
-4.3245 -7.5775 -4.13 -6.127 -8.210501 -5.1835 -5.448501 -4.896501 -5.8215 -12.1033 -10.8625 -6.115 -4.513 -6.5975 -5.4375 -6.894 -13.4295 -9.1395 -4.602 -2.9805 -4.004 -4.8915 -3.5385 -2.4195 -4.4155 -7.2775 -6.799 -2.6125 -3.619 -5.2365 -3.1405 -6.499001 -4.9805 
-8.981501 -7.776 -7.864501 -9.447001 -10.382 -7.967501 -7.2155 -7.094 -14.3035 -16.2098 -12.9885 -8.552 -7.532001 -8.1035 -9.405001 -14.7355 -16.0605 -9.1395 -6.889 -4.004 -6.0835 -5.0085 -3.7675 -5.211 -7.719501 -8.986 -7.492001 -4.377 -5.3635 -6.6455 -7.0535 -6.499001 
-9.2165 -11.6511 -10.5975 -12.0371 -13.166 -9.940001 -9.721001 -15.5622 -18.41 -18.3358 -15.4255 -11.6944 -9.067 -12.3154 -17.2785 -17.3665 -16.0605 -10.382 -8.064501 -6.0835 -6.1225 -5.2005 -5.9205 -8.3975 -9.753 -9.676001 -8.835501 -5.9995 -6.7975 -10.8811 -7.0535 
-13.2094 -14.3841 -13.1876 -14.8211 -15.1385 -12.7023 -18.2848 -19.6687 -20.536 -20.7728 -18.5679 -13.2294 -13.3599 -20.1889 -19.9095 -17.3665 -17.303 -11.5575 -9.8085 -6.1225 -6.289501 -7.224 -10.3955 -10.4425 -10.5155 -11.1019 -10.571 -7.222001 -11.1129 -10.8811 
