-4.759 
n/a 
n/a 
n/a 
n/a 
-4.759 
n/a 
n/a 
n/a 
n/a 
-4.759 
n/a 
n/a 
n/a 
n/a 
-4.759 
n/a 
n/a 
n/a 
n/a 
-3.2615 -1.4985 -3.956 -1.7565 -6.3685 -3.859 -2.95 -4.9295 
-4.032 -4.8985 -4.932 -8.89 -11.1003 -5.741 -8.656 
-6.1535 -5.16 -12.9337 -14.1284 -12.9823 -12.1594 
-6.1865 -13.3881 -18.1721 -16.0104 -19.4007 
-14.7504 -18.6265 -20.0541 -22.4288 
-1.7565 -2.8635 -3.075 -6.3685 
-5.404 -5.0885 -8.14 
-7.4185 -10.204 
-12.8646 
n/a 
-3.2615 -3.956 -1.7565 -10.2055 0 -3.859 -2.95 -5.1605 
-6.0445 -4.932 -12.9112 -10.2055 -3.859 -5.741 -8.508 
-7.3395 -16.9549 -12.9112 -14.3061 -5.741 -10.717 
-19.7836 -16.9549 -17.0118 -16.1881 -10.717 
-19.7836 -21.0555 -18.8938 -21.1641 
-9.160501 -2.95 -2.9805 -4.3375 -3.2615 -3.956 -3.741 -6.3685 
-10.0255 -5.2005 -5.565001 -7.2815 -6.0445 -7.486 -8.743 
-12.276 -7.712501 -9.43 -10.6325 -9.865001 -12.5434 
-14.788 -11.5935 -12.8122 -14.453 -14.9224 
-18.669 -14.9757 -16.6327 -19.5104 
