-4.759 
n/a 
n/a 
n/a 
n/a 
-4.759 
n/a 
n/a 
n/a 
n/a 
-4.759 
n/a 
n/a 
n/a 
n/a 
-4.759 
n/a 
n/a 
n/a 
n/a 
-3.034 -1.4985 -3.8275 -3.9535 0 -4.559 -4.69 -3.982 -2.229 -3.9025 -3.3255 -4.1115 0 
-3.947 -4.726 -7.04 -3.9535 -4.559 -8.8385 -9.419001 -5.746 -6.0755 -5.438 -7.8505 -4.1115 
-6.7535 -7.338 -7.04 -9.4755 -8.8385 -13.7589 -10.3295 -9.1025 -9.589001 -11.9954 -7.8505 
-7.977 -7.338 -10.4675 -14.0652 -13.7589 -14.6694 -13.686 -13.0622 -14.9368 -11.9954 
-7.977 -10.7575 -15.0572 -18.9856 -14.6694 -18.0259 -17.6457 -18.41 -14.9368 
-2.5045 -1.4985 -4.193 -1.7565 -1.4985 -3.8275 0 -7.572001 -3.43 -1.8085 -3.944 -3.7015 -1.4985 -3.982 -5.9855 
-3.1915 -4.594501 -4.7225 -2.4195 -4.726 -3.8275 -7.572001 -11.509 -4.6595 -5.48 -7.6525 -4.3435 -7.043 -11.046 
-5.0525 -4.7895 -5.081 -5.547 -4.726 -12.5055 -11.509 -12.7385 -9.128 -8.339001 -8.446501 -9.677001 -14.5454 
-5.154 -5.1135 -7.207001 -5.547 -14.0362 -16.4425 -12.7385 -17.207 -12.3164 -9.3765 -13.98 -17.2972 
-5.46 -7.2275 -7.207001 -14.9456 -17.9732 -17.672 -17.207 -20.3954 -13.3539 -15.0428 -21.6002 
-4.021 -3.2615 -1.4985 -11.595 -1.7565 -3.8275 -4.559 -3.43 -2.664 -4.1115 -4.67 -2.264 -3.982 0 
-5.5055 -4.032 -13.9639 -15.3274 -4.8265 -7.537 -8.06 -5.286 -7.362 -9.471001 -5.5125 -6.836 -3.982 
-6.147501 -17.3631 -17.8031 -18.3974 -9.064501 -10.322 -9.633 -10.9416 -13.4533 -10.5429 -10.5325 -6.836 
-19.7636 -20.7253 -20.8731 -22.6354 -12.2541 -11.895 -15.3684 -17.0329 -14.5252 -15.5629 -10.5325 
-23.0146 -23.7953 -25.1111 -25.825 -13.8271 -17.6304 -21.4597 -18.1048 -19.5452 -15.5629 
-3.584 -3.8275 -2.5045 -4.176 
-7.9295 -6.343 -7.106 
-11.009 -11.6297 
-16.2957 
n/a 
