-4.759 
n/a 
n/a 
n/a 
n/a 
-4.759 
n/a 
n/a 
n/a 
n/a 
-4.759 
n/a 
n/a 
n/a 
n/a 
-4.759 
n/a 
n/a 
n/a 
n/a 
-2.872 -1.934 -1.4985 -3.486 -2.95 -3.0365 -2.7415 -3.571 -4.613 -2.0935 -5.394 -4.4705 -1.756 -4.4215 -2.0935 -1.4985 -3.8225 -3.1385 
-4.659 -2.6125 -3.5655 -4.563 -5.4735 -4.2225 -5.775001 -7.107 -5.7025 -6.266 -8.4355 -5.575 -5.897 -6.365 -2.9725 -4.887 -6.4475 
-5.27 -4.5805 -4.577 -6.486 -6.3065 -6.329 -9.6005 -8.057501 -8.423 -9.3505 -9.231 -7.5355 -7.665 -7.199 -6.0725 -6.693 
-7.1065 -6.56 -6.4915 -7.455 -8.478001 -10.5745 -10.735 -10.733 -11.6023 -10.156 -10.4685 -9.3545 -8.4495 -10.5745 -7.8595 
-7.771 -8.592501 -7.467 -9.1265 -12.8257 -11.709 -13.4105 -13.9123 -12.4078 -11.3935 -12.2875 -10.3685 -11.9462 -12.3615 
-3.9225 -2.3615 -2.8965 -3.594 -2.925 -3.251 -2.0935 -1.7695 -4.0835 -4.4215 -2.0935 -3.8225 -4.9225 
-6.6375 -6.0575 -6.561 -6.885 -4.617 -5.866 -5.7445 -6.803 -7.887001 -6.365 -5.8435 -8.858 
-10.328 -10.0155 -9.738501 -8.755 -7.172 -9.232 -10.147 -10.8639 -9.509001 -10.2805 -10.513 
-14.286 -13.193 -11.7429 -11.411 -10.5656 -14.0807 -14.4025 -12.4859 -13.4857 -15.1354 
-17.4635 -15.1974 -14.3989 -14.8046 -15.4143 -18.3362 -16.0245 -16.4626 -18.3406 
-3.4765 -3.929 -2.356 -3.45 -4.913 -4.724 -3.1385 -2.8195 -3.9195 -2.186 -3.8535 -2.356 -3.5005 -3.571 -5.394 -4.77 0 
-4.589 -6.303 -5.0785 -8.505 -9.512001 -5.993001 -6.264 -6.171 -5.929 -4.972 -5.2305 -7.036 -7.1675 -9.6125 -10.1995 -4.77 
-7.9325 -8.6485 -10.4345 -13.2344 -10.9846 -9.293501 -10.757 -8.1485 -8.1485 -6.2745 -10.31 -10.3345 -13.4412 -14.4566 -10.1995 
-10.4154 -14.4035 -15.1639 -14.707 -14.2851 -14.2019 -12.7345 -10.5865 -9.571501 -11.5624 -13.6085 -16.8416 -18.2853 -14.4566 
-16.1704 -19.1329 -16.6365 -18.0075 -19.1935 -16.1794 -15.1725 -12.0095 -14.8772 -14.8609 -20.1156 -21.6857 -18.2853 
-1.934 -3.994 -2.925 -2.674 -2.664 -4.6705 -4.791 -4.77 -2.0935 -3.729 -1.4985 -5.351 -4.4705 
-4.095 -6.234 -4.1785 -4.343 -5.4375 -9.453001 -8.183001 -6.6295 -5.3975 -5.25 -6.8255 -9.449 
-6.2405 -7.3105 -6.0275 -7.2775 -10.757 -13.3742 -10.4945 -9.992001 -6.672501 -10.9756 -10.459 
-7.315001 -8.8485 -9.125 -13.1754 -14.6782 -15.6857 -13.857 -11.267 -12.6175 -14.6091 
-8.85 -12.1538 -15.0823 -17.0966 -16.9897 -19.0482 -15.132 -17.212 -16.251 
