-4.759 
n/a 
n/a 
n/a 
n/a 
-4.759 
n/a 
n/a 
n/a 
n/a 
-4.759 
n/a 
n/a 
n/a 
n/a 
-4.759 
n/a 
n/a 
n/a 
n/a 
-4.426 -1.7565 -1.4985 -3.6115 -4.7285 -4.1555 -3.147 0 
-5.47 -2.4195 -4.081 -6.5495 -8.4455 -5.77 -3.147 
-5.9535 -5.180501 -6.670501 -9.978001 -9.541501 -5.77 
-8.462501 -7.797 -10.054 -11.0524 -9.541501 
-10.2375 -11.2985 -11.1648 -11.0524 
-4.891 -5.1845 -3.6885 -2.186 -3.7855 -1.4985 -5.377 -2.186 -2.6165 -1.934 -2.664 -4.225 -5.3695 -3.0415 -2.3335 -2.9805 -4.1665 -2.186 -3.301 -2.0935 -4.7035 0 
-9.155001 -8.93 -4.8395 -4.9225 -4.709001 -6.459001 -6.931 -3.5105 -4.552 -4.0475 -8.5665 -9.588001 -8.411 -4.132 -4.1515 -8.436501 -5.876 -4.8405 -4.815 -6.643 -4.7035 
-13.1729 -10.0545 -7.745 -6.179 -9.820001 -7.947001 -8.290001 -5.3075 -6.7405 -9.894001 -14.0075 -12.7529 -9.4135 -5.875 -10.038 -9.788 -8.909 -5.5335 -9.615001 -6.643 
-14.2974 -13.1474 -9.148001 -11.6778 -11.2338 -9.2075 -9.9455 -7.5065 -12.8256 -15.4122 -17.1724 -13.7554 -11.2949 -12.2805 -11.4191 -12.8866 -9.661 -10.3415 -9.615001 
-17.3903 -14.5504 -14.6914 -13.0916 -12.4943 -10.9358 -12.0747 -13.918 -18.3438 -18.5771 -18.1749 -15.6368 -17.7004 -13.6616 -14.5177 -13.6386 -14.5684 -10.3415 
-4.891 -4.414 -2.3335 -3.45 -4.8225 -2.9705 -2.8645 -2.847 -3.4775 -1.756 -4.385 -1.7695 -3.0465 -1.4985 -3.777 -3.2645 -4.008 -3.8515 -2.9705 -2.742 -3.0785 -1.7695 -3.0465 -3.301 -3.4515 
-9.399 -6.419 -5.2765 -7.585 -6.999001 -4.6335 -4.6285 -5.8295 -5.098001 -5.8005 -5.9775 -3.683 -4.046 -4.588 -6.7425 -6.134501 -5.7235 -6.8725 -4.601501 -4.6085 -4.903 -3.683 -6.057 -6.075 
-11.721 -9.7015 -9.298 -8.9635 -9.297501 -6.467 -6.9685 -7.608 -9.193501 -7.415501 -8.5015 -4.634 -7.053 -7.0575 -10.0855 -7.2315 -9.280001 -8.522 -6.155 -5.809 -6.552 -6.4665 -7.337 
-15.0035 -13.741 -10.8773 -11.4464 -11.083 -8.355 -8.276501 -12.2549 -11.0585 -9.751501 -9.2925 -7.4815 -9.681101 -10.597 -11.3853 -11.2564 -11.0645 -10.0215 -7.154 -7.7615 -9.4635 -7.703501 
-19.043 -15.3203 -13.3602 -13.2319 -12.971 -10.0345 -13.2006 -14.1199 -13.3945 -10.3985 -12.4558 -10.2816 -13.2206 -11.8968 -15.4102 -13.0409 -12.564 -11.0205 -9.349001 -10.064 -10.7345 
-6.144 -4.1205 -2.3335 -1.4985 -4.0805 -4.257 -4.385 -2.4945 -2.6165 -4.513 -4.154 -8.27 -4.3725 -3.1425 -2.489 -4.1895 -2.0935 -2.985 -10.0425 
-10.287 -5.9915 -3.3515 -5.957001 -6.857 -7.926 -6.192 -3.8065 -6.798 -9.1605 -13.3538 -13.0693 -7.255001 -3.7875 -5.3985 -5.8355 -4.3315 -14.3921 
-12.158 -6.5335 -7.6705 -8.596001 -9.9615 -8.625 -7.528501 -7.5775 -12.1765 -18.4031 -18.1531 -15.9518 -7.884501 -6.024 -6.4075 -8.306001 -16.0076 
-12.7 -11.0817 -10.647 -11.8029 -10.9673 -9.8675 -11.7211 -13.256 -21.4191 -23.2024 -21.0356 -16.5813 -10.411 -7.088 -8.863501 -20.2531 
-17.2482 -14.0582 -13.8539 -12.8087 -12.2098 -14.1837 -17.3996 -22.4986 -26.2184 -26.0849 -21.6651 -19.1078 -11.475 -9.2555 -20.9326 
