-4.759 
n/a 
n/a 
n/a 
n/a 
-4.759 
n/a 
n/a 
n/a 
n/a 
-4.759 
n/a 
n/a 
n/a 
n/a 
-4.759 
n/a 
n/a 
n/a 
n/a 
-2.9805 -2.7415 -1.8085 -3.4155 -3.3785 -5.2775 
-4.004 -3.891 -4.0495 -8.489 -9.726001 
-5.075 -5.417 -9.6715 -15.1287 
-6.6555 -11.3728 -16.7652 
-13.3891 -18.4665 
-2.9805 -2.7415 -1.8085 -4.9915 -1.7695 -3.3785 -2.7455 -2.5685 0 
-4.004 -3.891 -6.024 -6.7895 -4.1685 -4.6985 -5.256001 -2.5685 
-5.075 -7.211 -7.145 -8.309 -5.138 -6.981 -5.256001 
-7.8275 -9.3625 -8.408501 -10.1067 -7.437 -6.981 
-10.146 -10.7684 -10.3708 -12.4057 -7.437 
-2.9805 -5.029 -5.976 
-8.574 -11.9176 
-15.8034 
n/a 
n/a 
-2.9805 -4.3195 -1.8085 -4.7365 
-5.4865 -5.0655 -5.948501 
-6.0965 -9.4125 
-10.181 
n/a 
