-4.759 
n/a 
n/a 
n/a 
n/a 
-4.759 
n/a 
n/a 
n/a 
n/a 
-4.759 
n/a 
n/a 
n/a 
n/a 
-4.759 
n/a 
n/a 
n/a 
n/a 
-2.3615 -2.186 -1.4985 -3.718 -2.7455 -1.4985 -4.2705 -1.7565 -9.8955 -3.688 -4.378 -1.934 -4.91 
-3.5005 -3.339 -4.522 -5.41 -3.637 -5.383 -5.4125 -12.6012 -13.9277 -5.9475 -5.913 -6.3075 
-4.3105 -6.0275 -6.451 -6.17 -7.2405 -5.585001 -17.0924 -16.6334 -16.1872 -7.252501 -9.816 
-6.5955 -7.7285 -6.962 -8.8595 -7.476501 -17.4563 -21.1246 -18.8929 -17.4922 -11.1859 
-8.273001 -8.3415 -9.738001 -8.897 -19.5594 -21.4885 -23.3841 -20.1979 -21.4256 
-2.3615 -2.186 -4.2705 -1.7565 0 -9.8955 0 -1.934 -4.91 0 
-3.5005 -7.648001 -5.4125 -1.7565 -9.8955 -9.8955 -1.934 -6.3075 -4.91 
-9.374001 -9.199501 -5.4125 -12.6012 -9.8955 -12.1737 -6.3075 -6.3075 
-10.61 -9.199501 -17.0924 -12.6012 -12.1737 -16.5472 -6.3075 
-10.61 -21.152 -17.0924 -14.8794 -16.5472 -16.5472 
-2.3615 -2.186 -4.2705 -3.718 -1.7565 0 -8.392 0 -1.934 -4.91 
-3.5005 -7.648001 -7.0255 -4.7685 -1.7565 -8.392 -8.392 -1.934 -6.3075 
-9.374001 -10.9274 -8.745001 -4.7685 -10.4035 -8.392 -10.4945 -6.3075 
-12.8456 -12.6469 -8.745001 -14.1585 -10.4035 -10.4945 -15.2416 
-14.5651 -12.6469 -18.3028 -14.1585 -12.506 -15.2416 
-2.3615 -2.186 -1.4985 -3.718 -1.7565 -4.2705 -1.7565 -5.7475 -5.964 -4.378 -1.934 -1.4985 -3.158 -4.91 0 
-3.5005 -3.339 -4.522 -4.7685 -5.023 -5.4125 -7.943 -9.654 -10.9726 -5.913 -2.6125 -4.178 -7.8155 -4.91 
-4.3105 -6.0275 -5.0205 -8.347 -6.7035 -10.733 -11.9939 -14.8682 -12.5076 -6.7755 -5.265 -8.533501 -7.8155 
-6.5955 -6.1495 -8.462001 -8.505501 -12.6146 -14.7839 -17.2081 -16.4032 -13.3701 -9.887001 -9.047501 -8.533501 
-6.6825 -10.733 -8.509001 -16.1066 -16.6655 -19.9981 -18.7431 -17.2657 -16.4816 -13.7151 -9.047501 
