-4.759 
n/a 
n/a 
n/a 
n/a 
-4.759 
n/a 
n/a 
n/a 
n/a 
-4.759 
n/a 
n/a 
n/a 
n/a 
-4.759 
n/a 
n/a 
n/a 
n/a 
-3.1015 -5.8255 -4.0085 -3.9665 -3.152 -5.2135 
-9.124001 -11.0145 -5.933 -7.1105 -8.594501 
-15.1966 -12.939 -8.389501 -12.7334 
-17.1211 -15.3955 -14.124 
-19.5776 -21.13 
-3.4775 -6.6595 -4.0085 -2.4945 -1.934 -3.1335 
-9.018001 -8.9075 -5.9105 -4.2645 -5.298 
-13.1645 -10.945 -7.9405 -7.4855 
-14.8021 -12.7075 -11.6099 
-17.3151 -16.6499 
-3.4775 -6.6595 -4.0085 -5.492 -2.4945 -5.2135 -1.934 -2.3615 -3.1335 0 
-9.018001 -8.9075 -9.234 -8.4455 -7.7695 -7.3785 -3.539 -4.7915 -3.1335 
-13.1645 -14.7676 -12.5237 -13.8325 -9.6525 -9.166 -6.4865 -4.7915 
-19.1478 -18.1029 -17.9107 -15.7155 -11.5772 -12.4585 -6.4865 
-22.4375 -23.4899 -19.7937 -17.6402 -14.8697 -12.4585 
-3.4775 -6.6595 -6.014 -2.4945 -4.3915 -1.934 -2.3615 0 
-9.018001 -10.14 -7.707001 -6.4065 -5.868 -3.539 -2.3615 
-14.2295 -11.533 -11.877 -7.357501 -7.6405 -3.539 
-15.8822 -15.7764 -12.828 -9.2325 -7.6405 
-20.111 -16.7274 -14.703 -9.2325 
