-4.759 
n/a 
n/a 
n/a 
n/a 
-4.759 
n/a 
n/a 
n/a 
n/a 
-4.759 
n/a 
n/a 
n/a 
n/a 
-4.759 
n/a 
n/a 
n/a 
n/a 
-2.5045 -1.4985 -3.486 -2.95 -6.231 -3.7875 -3.115 -1.4985 -3.486 -4.495 -1.756 -3.321 -3.4715 -4.0225 
-3.1915 -3.5655 -4.563 -10.075 -10.3415 -7.7235 -4.2305 -3.5655 -6.8615 -6.143001 -4.0055 -7.452 -7.074 
-4.538 -4.577 -11.9088 -14.1855 -14.9725 -9.1105 -6.675001 -6.960501 -8.442 -8.084001 -8.0775 -11.4357 
-4.615 -11.9744 -16.0193 -18.8165 -16.3595 -11.657 -9.638 -8.531 -10.564 -12.4936 -12.1898 
-12.0192 -16.0849 -20.6503 -20.2035 -18.906 -14.62 -11.3463 -10.733 -14.9736 -16.6059 
-1.4985 -5.5805 -2.186 -3.8255 -4.703 -3.436 -1.4985 -4.53 -2.95 -3.851 -1.7695 -1.4985 -4.4115 -1.7565 -4.0005 -5.636 
-6.184 -7.142 -5.1825 -6.901 -7.95 -4.213 -5.501 -6.870501 -6.370501 -4.0015 -2.7955 -4.787 -4.7565 -5.108 -8.5835 
-7.625 -9.828501 -8.473001 -9.896001 -9.065001 -7.9635 -7.714 -10.281 -6.405 -4.5775 -6.132 -4.837 -7.3605 -9.066001 
-10.6657 -13.333 -11.8254 -11.011 -12.8591 -10.0215 -11.5349 -10.2905 -6.9795 -6.551 -6.1885 -7.405 -11.7009 
-14.1702 -16.6854 -12.9404 -14.8051 -14.9171 -13.8252 -11.5444 -10.865 -9.222501 -6.566 -8.658 -11.7592 
-3.5485 -4.361 -2.95 -2.7415 -1.4985 0 -5.749 0 -5.5805 0 -3.383 -4.4155 -2.9645 -1.934 -6.0525 0 
-7.273 -8.804001 -5.481 -4.063 -1.4985 -5.749 -5.749 -5.5805 -5.5805 -3.383 -6.269 -6.0655 -4.6135 -9.803 -6.0525 
-12.2692 -11.4558 -6.765 -4.063 -6.8395 -5.749 -12.6089 -5.5805 -8.848001 -6.269 -8.3 -8.484 -13.1121 -9.803 
-14.921 -12.7398 -6.765 -9.375 -6.8395 -12.6089 -12.6089 -8.848001 -12.0382 -8.3 -10.9755 -17.1472 -13.1121 
-16.205 -12.7398 -12.1316 -9.375 -14.102 -12.6089 -15.8764 -12.0382 -14.0692 -10.9755 -19.6387 -17.1472 
-4.1105 -1.4985 -4.1925 -1.7565 -3.8315 -3.436 -6.48 0 -5.5805 -1.756 -3.074 -3.013 -1.4985 -3.681 0 
-6.083 -4.4615 -6.502 -5.5375 -6.8995 -10.485 -6.48 -5.5805 -6.7505 -4.566 -5.723001 -4.488 -4.9615 -3.681 
-9.4525 -6.594501 -11.1472 -8.576 -14.7397 -10.485 -9.3605 -6.7505 -9.3985 -7.346001 -6.833 -6.483 -4.9615 
-11.7493 -11.3607 -14.1857 -16.5608 -14.7397 -13.3655 -10.282 -9.3985 -12.1783 -8.524 -9.422501 -6.483 
-16.5155 -14.3992 -22.1705 -16.5608 -17.6202 -14.287 -13.1 -12.1783 -13.3563 -10.733 -9.422501 
