-4.759 
n/a 
n/a 
n/a 
n/a 
-4.759 
n/a 
n/a 
n/a 
n/a 
-4.759 
n/a 
n/a 
n/a 
n/a 
-4.759 
n/a 
n/a 
n/a 
n/a 
-3.548 -3.893 -3.4155 -3.3425 -2.5235 -3.2945 -3.098 -1.756 -3.53 
-6.45 -5.477 -6.7515 -5.105 -5.353001 -4.672 -4.558 -4.8225 
-7.905 -9.0115 -8.189501 -7.5175 -5.818 -5.712 -5.6755 
-13.3127 -10.4185 -11.1378 -7.8145 -6.267001 -5.789 
-14.7197 -13.3668 -11.4348 -7.8985 -6.343501 
-2.3335 -2.186 0 -3.8055 -2.5235 -3.53 -1.756 -3.717 
-3.7085 -2.186 -3.8055 -5.269 -4.2835 -5.378 -5.358 
-3.7085 -5.751 -5.269 -8.646 -6.3065 -7.751 
-7.120501 -7.9785 -8.646 -9.972 -8.882 
-9.476501 -11.4375 -9.972 -12.7487 
-6.6045 -2.186 -3.893 
-7.925 -6.599 
-12.734 
n/a 
n/a 
-2.9645 -2.5235 -3.548 -3.531 -1.7695 -3.717 0 
-4.723001 -5.415 -6.08 -5.904 -4.686 -3.717 
-7.823 -6.800001 -8.334001 -8.108 -4.686 
-9.177501 -8.960501 -10.7175 -8.108 
-10.368 -11.6224 -10.7175 
