-4.759 
n/a 
n/a 
n/a 
n/a 
-4.759 
n/a 
n/a 
n/a 
n/a 
-4.759 
n/a 
n/a 
n/a 
n/a 
-4.759 
n/a 
n/a 
n/a 
n/a 
-1.4985 -5.215 -4.203 -3.325 -7.5605 -2.7415 -3.383 -4.0205 -1.934 -5.1845 -5.74 
-6.691501 -10.2185 -7.101 -11.0465 -9.686001 -4.8365 -5.582 -5.91 -6.564 -5.7465 
-10.634 -13.1165 -15.6109 -13.172 -11.9316 -7.1665 -7.0835 -10.7025 -6.819 
-13.532 -21.6264 -17.7364 -15.4176 -14.2616 -8.0485 -11.9978 -10.9575 
-22.0419 -23.7519 -19.982 -17.7476 -15.1436 -13.186 -12.2528 
-4.2245 -1.7565 -8.445001 -10.5165 -3.0415 -12.16972 -9.387501 -1.7565 -6.557 
-5.277 -10.2485 -19.6933 -13.8948 -16.30202 -21.55722 -11.6428 -7.653501 
-14.6892 -21.4882 -23.0716 -27.15532 -25.68952 -23.81252 -17.5398 
-25.9289 -24.8665 -36.33212 -36.54282 -27.94482 -29.70952 
-29.3072 -38.12702 -45.71962 -38.79812 -33.84182 
-5.215 -4.203 -3.325 -1.4985 -4.132 -1.7565 -7.5605 -4.938 -2.645 -4.7015 -1.756 -4.7155 
-10.2185 -7.101 -3.898 -5.351501 -5.653 -9.578 -13.3345 -6.849 -7.290001 -6.284501 -6.666 
-13.1165 -7.473001 -6.183 -5.876 -14.1055 -15.352 -15.2455 -8.447001 -8.6485 -8.693501 
-13.4885 -8.995001 -6.194 -14.3871 -19.8795 -17.263 -16.8435 -9.93 -11.1943 
-15.0105 -9 -14.7327 -20.1611 -21.7905 -18.861 -18.3265 -12.4758 
-5.215 -4.203 -3.0465 -1.8085 -3.301 -3.8685 -1.934 -6.557 
-10.2185 -7.4075 -4.1205 -4.019 -6.575 -5.1635 -7.536 
-13.423 -8.6 -5.8505 -6.7505 -7.8085 -11.3465 
-14.6155 -10.9038 -8.601501 -8.018001 -14.2437 
-16.9193 -13.6548 -9.2705 -14.564 
