-4.759 
n/a 
n/a 
n/a 
n/a 
-4.759 
n/a 
n/a 
n/a 
n/a 
-4.759 
n/a 
n/a 
n/a 
n/a 
-4.759 
n/a 
n/a 
n/a 
n/a 
-3.0365 -2.4945 -3.3715 -6.493001 -2.7415 -4.69 0 
-3.688 -4.846 -10.2925 -10.4265 -6.2025 -4.69 
-4.8765 -12.1434 -14.4312 -13.8875 -6.2025 
-12.2233 -16.2821 -17.8922 -13.8875 
-16.362 -19.7431 -17.8922 
-1.4985 -3.5785 -1.7565 -4.473 -1.7565 -3.4225 -4.1265 -3.8495 -2.7415 -4.69 
-4.471 -4.7405 -5.5055 -5.6885 -5.6355 -6.775001 -7.693 -6.2865 -6.2025 
-5.142 -9.3815 -6.9445 -9.488501 -8.59 -10.4425 -10.044 -10.7595 
-9.903 -11.0387 -11.6919 -12.689 -12.2351 -12.7935 -14.6114 
-11.7106 -15.7861 -14.8924 -16.3341 -14.5861 -17.3609 
-1.4985 -4.473 -2.9705 -2.7415 -4.024 -1.7695 -1.4985 -3.4225 -4.1 -2.7415 -4.69 0 
-5.426001 -7.021 -4.512 -5.275001 -4.5525 -2.7955 -3.9655 -9.0045 -6.363 -6.2025 -4.69 
-8.004001 -8.089001 -7.1495 -5.7245 -5.08 -5.2435 -10.459 -11.4993 -10.66 -6.2025 
-8.9245 -10.213 -7.3985 -6.410501 -7.7045 -11.9466 -12.9538 -15.7963 -10.66 
-10.6735 -10.4035 -7.958 -8.510501 -14.44 -14.4414 -17.2508 -15.7963 
-7.479001 -3.5435 -3.935 -1.7695 -2.664 -7.803 -4.6935 0 
-11.6557 -7.684501 -5.7105 -4.185 -11.6854 -13.0471 -4.6935 
-15.7967 -9.440001 -8.720501 -13.607 -16.9295 -13.0471 
-17.5522 -13.594 -18.2737 -18.8511 -16.9295 
-21.7062 -23.1472 -23.5178 -18.8511 
