-4.759 
n/a 
n/a 
n/a 
n/a 
-4.759 
n/a 
n/a 
n/a 
n/a 
-4.759 
n/a 
n/a 
n/a 
n/a 
-4.759 
n/a 
n/a 
n/a 
n/a 
-3.4775 -1.4985 -3.97 -2.3335 -2.4945 -1.934 -1.4985 -3.959 -3.3155 -2.925 -3.511 -2.4945 -1.7565 -4.4525 
-5.052 -5.476 -6.564 -3.947 -4.2645 -2.6125 -5.5 -5.842 -4.734 -5.669001 -7.045 -5.101 -5.854001 
-9.098001 -7.615001 -8.194 -5.6445 -4.935 -6.3645 -6.8005 -7.0655 -6.374001 -8.2145 -9.786501 -7.295501 
-11.5494 -8.996 -9.9805 -6.212 -8.821 -7.289001 -7.668 -8.795 -8.6815 -11.088 -11.988 
-12.9304 -10.6465 -10.5795 -9.1055 -10.328 -7.9075 -8.928 -10.634 -11.612 -13.2895 
-4.8625 -2.8705 -3.3435 -3.59 -3.9655 -2.186 -3.535 -3.355 
-8.401501 -5.8555 -7.518 -7.82 -7.603001 -6.8505 -6.408 
-11.5719 -10.7175 -12.4092 -11.8275 -12.5823 -9.248501 
-16.4339 -15.6087 -16.4167 -16.8068 -14.9803 
-21.3251 -19.6162 -21.396 -19.2048 
-3.4775 -1.7695 -3.511 -1.7695 -2.664 -2.8705 -9.7895 -3.59 -3.098 -3.699 0 
-5.2005 -4.633 -5.814 -4.185 -7.4775 -14.0158 -13.5209 -6.912001 -6.6315 -3.699 
-8.4265 -6.735 -8.232 -9.231501 -18.937 -17.7472 -16.8429 -10.8711 -6.6315 
-10.199 -9.0175 -13.8991 -21.0118 -22.6684 -21.0692 -20.802 -10.8711 
-12.6279 -15.1592 -25.6794 -24.7432 -25.9904 -25.0283 -20.802 
-3.4775 -8.27 -3.2015 -1.4985 -3.97 -1.7565 -2.985 -3.59 -3.3155 -2.925 -5.3975 
-12.7135 -11.8983 -4.57 -5.476 -5.4255 -3.9355 -5.6905 -5.8015 -4.734 -6.6385 
-16.3418 -13.2668 -8.6675 -5.6265 -8.175501 -6.547501 -8.502001 -7.112 -7.191 
-17.7103 -17.3643 -9.333 -8.384501 -9.357501 -8.913001 -9.1025 -9.076 
-21.8078 -18.0298 -12.1522 -9.558001 -11.8786 -9.667001 -11.2891 
