-4.759 
n/a 
n/a 
n/a 
n/a 
-4.759 
n/a 
n/a 
n/a 
n/a 
-4.759 
n/a 
n/a 
n/a 
n/a 
-4.759 
n/a 
n/a 
n/a 
n/a 
-2.871 -3.7825 -3.254 -2.186 -2.4265 -3.8225 -5.675 0 
-7.203 -5.414001 -5.1975 -4.2875 -7.1425 -11.0145 -5.675 
-9.553 -7.999501 -7.612 -7.5665 -14.9191 -11.0145 
-12.3433 -10.13 -10.702 -15.9839 -14.9191 
-14.4738 -13.3564 -19.1194 -15.9839 
-2.925 -3.074 -2.674 -3.254 -1.7565 -3.686 -3.6845 0 
-4.9325 -4.7925 -7.0275 -4.0065 -5.3165 -6.4535 -3.6845 
-5.899 -9.545501 -7.942 -6.367001 -8.397 -6.4535 
-10.733 -9.816001 -10.031 -8.766001 -8.397 
-11.0035 -11.9788 -12.4532 -8.766001 
-2.871 -4.5075 -3.254 0 
-7.601501 -8.135 -3.254 
-11.5686 -8.135 
-11.5686 
n/a 
-1.8085 -4.6455 -3.254 -3.1425 -2.489 -3.1435 -4.4485 0 
-6.401 -8.2755 -6.5825 -3.7875 -6.1675 -7.377501 -4.4485 
-9.906 -11.9226 -7.018001 -7.136001 -10.8679 -7.377501 
-13.5737 -12.3581 -10.5975 -12.1302 -10.8679 
-14.0092 -15.9376 -15.5917 -12.1302 
