-4.759 
n/a 
n/a 
n/a 
n/a 
-4.759 
n/a 
n/a 
n/a 
n/a 
-4.759 
n/a 
n/a 
n/a 
n/a 
-4.759 
n/a 
n/a 
n/a 
n/a 
-3.691 -3.7745 -5.4175 -4.3185 -4.445 0 -3.1385 -4.7485 0 -1.756 -4.293 0 
-6.434501 -10.932 -10.771 -10.7335 -4.445 -3.1385 -8.785 -4.7485 -1.756 -5.79 -4.293 
-15.255 -16.2855 -17.186 -10.7335 -8.565001 -8.785 -8.785 -6.234 -5.79 -5.79 
-20.6085 -22.7005 -17.186 -14.8535 -14.6335 -8.785 -10.9013 -9.669001 -5.79 
-27.0235 -22.7005 -21.306 -20.922 -14.6335 -10.9013 -14.3363 -9.669001 
-3.691 -2.229 -3.7745 -4.698 -2.674 -3.5795 -4.445 0 -3.1385 -4.304 -1.756 -6.986001 0 
-5.0855 -5.7545 -8.7745 -7.321501 -7.4325 -8.3985 -4.445 -3.1385 -8.416 -5.618501 -9.034 -6.986001 
-8.197001 -10.3745 -11.5854 -12.4094 -12.6115 -8.3985 -8.565001 -8.416 -10.2925 -13.7777 -9.034 
-13.739 -13.1854 -16.6733 -17.5884 -12.6115 -12.7467 -14.2645 -10.2925 -18.4517 -13.7777 
-16.5499 -18.2733 -21.8523 -17.5884 -16.9597 -18.4462 -16.141 -18.4517 -18.4517 
-3.691 -2.229 -6.0655 -2.186 -1.7565 -6.956501 -1.756 -2.8965 -5.0075 
-5.0855 -7.8725 -7.609 -4.858 -9.1955 -8.739501 -3.751 -7.1445 
-10.7175 -9.382501 -10.586 -13.2348 -10.9989 -10.8673 -7.7075 
-12.2275 -12.4539 -18.9628 -15.0382 -13.1267 -14.8238 
-15.2989 -20.8307 -20.7662 -17.166 -17.0832 
-3.691 -2.229 -3.7745 -4.698 -2.186 -3.43 -2.925 -1.7565 -4.445 0 -3.1385 -2.229 -4.304 -1.756 -4.293 0 
-5.0855 -5.7545 -8.7745 -6.544001 -4.64 -5.0455 -4.898 -6.3415 -4.445 -3.1385 -4.6125 -6.7845 -5.618501 -5.79 -4.293 
-8.197001 -10.3745 -10.647 -8.831501 -5.649 -5.285 -9.9055 -6.3415 -8.565001 -4.6125 -7.1835 -8.097 -7.352001 -5.79 
-13.739 -12.247 -12.9345 -8.9575 -5.6955 -10.0575 -9.9055 -10.8723 -8.963501 -7.1835 -8.392501 -9.535501 -7.352001 
-15.6115 -14.5345 -13.0605 -8.988501 -10.5975 -10.0575 -14.5575 -11.2708 -12.9593 -8.392501 -10.1276 -9.535501 
