-4.759 
n/a 
n/a 
n/a 
n/a 
-4.759 
n/a 
n/a 
n/a 
n/a 
-4.759 
n/a 
n/a 
n/a 
n/a 
-4.759 
n/a 
n/a 
n/a 
n/a 
-4.103 -3.9175 -1.7565 -3.64 -3.962 -3.614 -2.0935 -3.6055 -2.0935 -3.614 0 
-8.948 -4.64 -5.468 -7.5925 -8.064 -5.395 -4.7925 -7.824501 -6.1265 -3.614 
-10.1951 -9.915 -8.1405 -12.8955 -10.6336 -8.648001 -8.6885 -12.2689 -6.1265 
-15.4701 -12.5875 -14.9533 -15.4651 -13.8866 -12.7102 -13.5629 -12.2689 
-18.1426 -19.4003 -17.5229 -18.7181 -17.9488 -17.5846 -13.5629 
-3.0785 -2.0935 -2.5685 -1.7565 -3.277 -2.9705 -3.7965 0 -1.4985 -3.0835 -2.9775 -1.7565 -1.4985 -3.16 -2.9775 
-5.116 -3.987 -3.887 -4.25 -6.023 -5.034 -3.7965 -1.4985 -3.535 -5.4115 -4.9315 -2.4195 -4.0625 -4.6715 
-7.257 -5.1325 -5.2535 -6.832 -8.587501 -5.034 -4.8165 -3.535 -5.815001 -6.212 -5.5345 -5.068501 -5.8255 
-8.416 -6.682 -8.065001 -9.422501 -8.587501 -5.840001 -6.8825 -5.815001 -6.317 -6.641 -7.476501 -6.575 
-10.034 -9.192 -10.3885 -9.422501 -9.396501 -7.962001 -9.719501 -6.317 -6.671 -9.0065 -9.6175 
-2.6165 -2.5045 -2.5685 -2.0935 -2.5685 -4.3165 -3.098 -2.0935 -2.8195 -2.9775 -4.3165 
-5.1365 -4.275 -5.2135 -3.987 -7.7685 -7.2005 -4.8475 -5.033 -4.235 -6.8075 
-5.4535 -6.174 -7.1455 -9.213 -10.9687 -9.58 -8.2505 -7.247 -9.432501 
-7.627501 -8.2425 -12.9593 -12.6084 -13.3482 -13.0584 -10.028 -12.9779 
-9.503 -14.5769 -16.3547 -14.9879 -16.8266 -14.8359 -15.8565 

n/a 
n/a 
n/a 
n/a 
