-4.759 
n/a 
n/a 
n/a 
n/a 
-4.759 
n/a 
n/a 
n/a 
n/a 
-4.759 
n/a 
n/a 
n/a 
n/a 
-4.759 
n/a 
n/a 
n/a 
n/a 
-3.5715 -3.133 -12.16972 -9.389001 0 -8.2945 -11.0555 -8.983001 -3.8385 -10.546 
-5.518 -15.82512 -21.55872 -9.389001 -8.2945 -19.7836 -20.0385 -13.0653 -15.3303 
-19.40812 -25.21412 -21.55872 -18.0373 -19.7836 -28.7666 -24.1208 -24.5571 
-28.79712 -25.21412 -30.20702 -29.5264 -28.7666 -32.8489 -35.6126 
-28.79712 -33.86242 -41.69612 -38.5094 -32.8489 -44.3407 
-3.5715 -12.2085 -9.389001 0 -8.5435 -11.0555 -2.4945 -1.4985 -3.5155 -1.7565 -3.8385 -1.934 -12.16972 
-15.1159 -22.3067 -9.389001 -8.5435 -19.978 -13.55 -3.9315 -6.2875 -4.8955 -5.921 -5.627501 -15.11012 
-25.8897 -22.3067 -18.2863 -19.978 -22.4725 -14.987 -8.876 -6.7275 -9.674 -8.111501 -19.44282 
-25.8897 -31.204 -29.7208 -22.4725 -23.9095 -19.9315 -9.478001 -12.5168 -12.4045 -22.06002 
-34.787 -42.6385 -32.2153 -23.9095 -28.854 -20.5335 -15.1205 -15.2473 -26.35302 
-3.5715 -3.133 0 -9.0755 -9.452001 0 -4.2245 -1.7565 -9.696501 -9.968 -3.7575 
-5.518 -3.133 -9.0755 -18.7143 -9.452001 -4.2245 -5.277 -12.4022 -19.9275 -14.0221 
-5.518 -12.7309 -18.7143 -18.7143 -14.0815 -5.277 -16.8429 -22.6332 -23.9816 
-16.3139 -22.3697 -18.7143 -23.3438 -15.134 -16.8429 -27.0739 -26.6873 
-25.9527 -22.3697 -23.3438 -24.3963 -26.6999 -27.0739 -31.128 
-3.5715 -3.133 0 -8.422501 -9.389001 0 -3.8385 -10.546 -1.7565 -8.183001 -11.0555 -3.7575 0 
-5.518 -3.133 -8.422501 -18.2435 -9.389001 -3.8385 -15.3303 -12.3025 -8.8815 -19.7125 -14.813 -3.7575 
-5.518 -12.0779 -18.2435 -18.2435 -11.117 -15.3303 -17.0868 -19.4275 -21.3222 -23.47 -14.813 
-15.6609 -21.8989 -18.2435 -19.9715 -22.6088 -17.0868 -24.2118 -31.8682 -25.0797 -23.47 
-25.4819 -21.8989 -19.9715 -31.4633 -24.3653 -24.2118 -36.6525 -35.6257 -25.0797 
