-4.759 
n/a 
n/a 
n/a 
n/a 
-4.759 
n/a 
n/a 
n/a 
n/a 
-4.759 
n/a 
n/a 
n/a 
n/a 
-4.759 
n/a 
n/a 
n/a 
n/a 

n/a 
n/a 
n/a 
n/a 
-2.8965 -3.681 -3.917 -4.33 -1.4985 -3.498 -2.5045 -3.543 -1.4985 -4.5185 -3.254 0 
-5.023 -8.835501 -9.272 -4.900001 -4.0295 -6.143001 -5.323 -5.62 -5.8135 -8.545 -3.254 
-9.980501 -14.4813 -9.477 -5.89 -6.745 -8.929501 -5.8685 -9.305 -8.9305 -8.545 
-15.6263 -14.6863 -9.9805 -8.3255 -9.8465 -9.385501 -9.3955 -12.5354 -8.9305 
-15.8313 -15.1898 -13.7092 -11.57 -10.222 -13.0377 -12.6581 -12.5354 
-3.45 -3.917 -1.7695 -1.4985 -3.826 0 -3.9345 -1.7695 -1.4985 -5.3015 -3.333 
-6.9485 -5.5125 -2.7955 -4.4325 -3.826 -3.9345 -3.94 -2.7955 -6.0155 -8.3925 
-8.0135 -6.8675 -5.745 -4.4325 -8.5345 -3.94 -4.4455 -7.837 -9.741501 
-9.3995 -9.452001 -5.745 -9.490001 -8.5395 -4.4455 -9.1265 -11.8042 
-12.0006 -9.452001 -10.354 -9.507001 -9.087001 -9.1265 -13.2463 
-2.8965 -3.917 -2.0935 -3.826 0 -5.3015 -3.254 
-6.789001 -5.367001 -5.7695 -3.826 -5.3015 -8.0105 
-9.9805 -8.545 -5.7695 -9.9305 -8.0105 
-13.2629 -8.545 -12.6348 -12.6395 
-13.2629 -15.9085 -15.3438 
