-4.759 
n/a 
n/a 
n/a 
n/a 
-4.759 
n/a 
n/a 
n/a 
n/a 
-4.759 
n/a 
n/a 
n/a 
n/a 
-4.759 
n/a 
n/a 
n/a 
n/a 
-2.5685 -3.468 0 -4.0375 -4.846 -2.186 -6.4405 0 -4.883 -2.186 -1.4985 -3.9515 0 -3.147 -3.1385 -5.032 -1.4985 -3.5435 0 
-5.542 -3.468 -4.0375 -7.251501 -7.3535 -9.728001 -6.4405 -4.883 -7.158 -3.339 -5.059 -3.9515 -3.147 -6.5485 -7.808001 -6.418 -4.2755 -3.5435 
-5.542 -7.5985 -7.251501 -9.4925 -15.0909 -9.728001 -9.6125 -7.158 -8.040001 -6.498 -5.059 -7.8315 -6.5485 -11.7216 -8.767501 -8.7965 -4.2755 
-9.3925 -7.8675 -9.4925 -17.3163 -15.0909 -13.1302 -12.0911 -8.040001 -8.8795 -6.498 -8.691 -10.494 -11.7216 -12.6811 -9.844501 -8.7965 
-9.4245 -10.4345 -17.3163 -17.3163 -18.4931 -15.6088 -12.9731 -8.8795 -8.8795 -10.553 -11.4529 -15.6671 -12.6811 -13.7581 -9.844501 
-3.5435 -4.645 -2.3345 -3.1385 -2.186 -3.8825 -7.857501 0 -4.883 -3.9515 0 
-7.2925 -5.881001 -5.443501 -5.6995 -5.3085 -10.7495 -7.857501 -4.883 -8.463 -3.9515 
-8.2805 -8.48 -8.321 -9.437 -12.8655 -10.7495 -11.136 -8.463 -8.463 
-9.64 -10.243 -12.1617 -17.1046 -12.8655 -15.2382 -14.716 -8.463 
-12.031 -14.4195 -19.8293 -17.1046 -17.3542 -18.8182 -14.716 
-2.5685 -3.468 0 -6.4405 -1.756 -4.883 -3.9515 -2.4945 -5.1605 -1.4985 -3.5435 -2.9705 -2.7415 -4.645 -2.3345 -1.4985 -3.237 0 
-5.542 -3.468 -6.4405 -8.120001 -7.1595 -8.463 -6.783 -7.1225 -6.2535 -4.2755 -6.098001 -4.512 -5.6165 -5.881001 -3.233 -4.1875 -3.237 
-5.542 -8.9895 -8.120001 -10.3745 -11.0569 -12.1207 -11.6968 -9.560501 -8.7295 -6.809 -7.4785 -8.388 -7.125 -6.213 -5.7865 -4.1875 
-11.9867 -10.7558 -10.3745 -14.2719 -14.7146 -17.0345 -14.1348 -12.0365 -11.7348 -8.209001 -9.144 -9.069 -7.477001 -8.373501 -5.7865 
-13.753 -13.0103 -14.2719 -17.9296 -19.6284 -19.4725 -16.6108 -15.0418 -13.1348 -10.142 -10.1225 -9.228001 -10.0125 -8.373501 
-1.934 -2.5685 -3.468 -1.756 -1.934 -4.0375 -4.5655 -3.892 -1.7565 -7.857501 -1.756 -1.934 -4.883 -3.9515 -3.892 -3.074 -1.8085 -3.6765 -3.0695 -4.1 -2.7415 -4.645 -2.3345 -1.4985 -3.1385 
-4.244 -5.542 -4.7175 -4.0205 -6.212 -7.239 -7.861501 -5.131001 -9.1665 -9.4075 -4.0205 -6.081 -8.463 -6.1575 -6.908 -4.639 -4.452 -4.7945 -7.276501 -6.363 -5.6165 -5.881001 -3.233 -4.2575 
-6.359 -6.784 -6.4425 -8.4075 -9.125001 -11.2412 -9.3555 -13.189 -10.265 -11.6958 -8.821001 -9.967001 -10.31 -9.171 -9.1285 -7.609 -5.2675 -10.0151 -10.7575 -10.2535 -7.125 -6.213 -5.869 
-7.245 -8.791 -11.5133 -11.6135 -13.2712 -12.7352 -17.7533 -14.2875 -12.5533 -16.4963 -12.91 -12.1106 -13.3235 -11.6951 -12.1057 -8.146 -10.8423 -13.4961 -14.648 -11.762 -7.477001 -7.2405 
-9.068001 -14.31 -14.7193 -15.7597 -14.7652 -21.133 -18.8518 -16.5758 -17.3538 -20.5853 -15.0536 -15.1241 -15.8476 -14.6723 -12.6427 -13.8444 -14.3233 -17.3866 -16.1565 -12.114 -8.386001 
