-4.759 
n/a 
n/a 
n/a 
n/a 
-4.759 
n/a 
n/a 
n/a 
n/a 
-4.759 
n/a 
n/a 
n/a 
n/a 
-4.759 
n/a 
n/a 
n/a 
n/a 
-4.722 -4.4925 -4.357 -1.4985 -7.4535 -1.8085 -4.0695 -1.7565 -5.5435 -3.9795 0 
-6.9735 -9.291 -5.343 -8.536 -9.269 -5.5775 -5.275 -6.424 -9.429501 -3.9795 
-9.981001 -9.809501 -9.959001 -9.818501 -9.7825 -6.981501 -9.4135 -9.7155 -9.429501 
-9.9855 -9.984501 -10.0935 -10.092 -9.785501 -9.633 -9.782001 -9.7155 
-9.990001 -10.097 -10.0995 -10.098 -9.788501 -9.7825 -9.782001 
-1.8085 -4.0695 -10.161 -3.9795 -1.7695 -5.7385 -4.712 -12.16972 0 
-5.5775 -15.4079 -14.3835 -5.853001 -7.467 -11.7813 -17.76752 -12.16972 
-17.5069 -19.6304 -16.257 -11.9439 -14.0206 -24.83682 -17.76752 
-21.7294 -21.5039 -22.3479 -18.4975 -27.07612 -24.83682 
-23.6029 -27.5948 -28.9015 -31.55302 -27.07612 
-13.0385 -7.427001 -12.16972 -4.098 -1.8085 -4.0695 -1.7565 -7.4335 -3.9795 0 
-21.4205 -20.05652 -16.26772 -5.1595 -5.5775 -5.275 -8.313001 -11.8746 -3.9795 
-34.05002 -24.15452 -17.32922 -9.484501 -6.981501 -12.5045 -12.9313 -11.8746 
-38.14802 -25.21602 -21.65422 -10.9577 -14.5186 -17.1228 -12.9313 
-39.20952 -29.54102 -23.12742 -18.4948 -19.1369 -17.1228 
-12.1565 -4.4925 -4.098 -1.4985 -3.9795 -1.7565 -7.4535 0 -1.8085 -4.0695 -1.7565 -5.5435 
-16.2236 -8.657001 -5.173 -5.103 -5.539001 -9.25 -7.4535 -1.8085 -5.5775 -5.275 -6.424 
-20.3881 -9.894501 -8.1835 -6.0835 -14.1841 -9.25 -9.269 -5.5775 -6.981501 -9.4135 
-21.6256 -12.9804 -10.064 -14.9284 -14.1841 -11.3003 -9.7825 -6.981501 -9.633 
-24.7115 -14.8609 -18.9965 -14.9284 -16.2344 -11.8138 -9.785501 -9.633 
