-4.759 
n/a 
n/a 
n/a 
n/a 
-4.759 
n/a 
n/a 
n/a 
n/a 
-4.759 
n/a 
n/a 
n/a 
n/a 
-4.759 
n/a 
n/a 
n/a 
n/a 
-3.8805 -4.4195 -3.1385 -3.485 -3.1385 -3.0695 -2.4945 -4.4465 -2.3345 -3.5905 -3.7515 -3.6885 -2.8645 -3.3715 -3.8035 -1.756 -2.925 -2.4945 -2.664 -3.668 -1.756 -4.3905 -2.264 -3.45 -3.3875 -2.489 -4.0535 0 
-8.538 -7.576 -7.0365 -7.391 -4.286 -4.2085 -5.7985 -4.897501 -6.287 -5.483 -8.0515 -5.865 -5.473001 -6.0565 -4.9805 -4.2585 -3.7675 -4.9875 -4.7495 -5.756001 -5.384501 -6.898 -5.2765 -7.3975 -3.7975 -6.444 -4.0535 
-11.8949 -11.755 -10.0645 -9.292001 -5.128 -6.919001 -6.018 -9.284 -8.0755 -8.4615 -10.2285 -8.572001 -7.774 -7.348001 -7.2095 -5.16 -6.2335 -6.9275 -6.808 -10.6335 -7.785501 -9.986501 -9.587501 -7.741 -8.259 -6.444 
-16.0739 -14.783 -12.0615 -9.902 -7.665 -7.047 -10.2985 -9.758 -11.0668 -11.0577 -13.0873 -11.324 -8.7535 -9.213 -8.083 -7.7675 -8.285501 -9.007501 -12.0007 -13.0345 -10.5975 -14.2975 -10.3055 -12.4651 -8.259 
-19.1019 -16.78 -12.6715 -12.439 -7.790501 -11.7799 -10.7725 -12.7977 -13.663 -13.9165 -15.8393 -12.3035 -10.476 -9.989501 -10.8473 -9.692 -10.264 -14.3924 -14.4017 -15.8465 -14.9085 -15.0155 -15.0296 -12.4651 
-4.1065 -2.0935 -3.45 -3.0695 -2.674 -4.4895 -4.619 -3.115 -5.3805 -1.934 -3.8805 -2.4285 -4.619 -3.851 -1.7695 -4.718 0 -1.4985 -3.447 -4.4445 -2.4945 -3.383 -4.1895 0 
-5.2945 -4.440001 -4.273 -4.343 -7.4715 -8.0085 -7.804501 -8.8465 -6.751 -5.3795 -6.047 -6.9605 -8.007001 -4.0015 -6.778501 -4.718 -1.4985 -5.2145 -8.911501 -6.467 -4.732 -5.424 -4.1895 
-6.535501 -4.983 -5.23 -8.6145 -9.799 -10.275 -13.931 -10.3815 -10.4345 -7.5795 -11.3944 -9.863001 -8.031501 -7.479 -6.778501 -6.654 -5.2145 -10.4185 -10.8896 -8.540001 -6.809501 -5.424 
-7.0325 -5.9905 -9.637 -9.878 -12.1875 -16.7237 -15.466 -14.065 -12.6345 -13.0987 -14.2969 -9.877501 -10.2865 -7.479 -8.463501 -10.7916 -10.4185 -12.5164 -12.9626 -10.7495 -6.809501 
-7.891 -10.442 -10.9189 -12.2963 -18.6362 -18.2587 -19.1495 -16.265 -18.1537 -16.0012 -14.3114 -12.3047 -10.2865 -9.017 -12.6789 -15.9956 -12.5164 -14.5894 -15.1721 -10.7495 
-1.4985 -7.1645 -4.257 -4.2285 -2.4945 -4.4195 0 -4.7045 -3.1385 -2.925 -2.4945 -5.011 -3.7875 -3.2895 
-8.134001 -11.117 -7.082 -6.185501 -6.105 -4.4195 -4.7045 -7.1745 -5.268001 -3.7675 -6.565001 -8.908 -7.726 
-12.9233 -13.942 -7.8535 -9.534501 -6.105 -10.0045 -7.1745 -9.505 -6.487 -7.945001 -10.1185 -13.0063 
-15.7483 -14.7135 -11.5693 -9.534501 -12.4582 -12.4745 -9.505 -10.4605 -10.9799 -11.6311 -14.2168 
-16.5198 -18.4293 -11.5693 -16.0491 -14.9282 -14.805 -10.4605 -14.9534 -14.666 -15.7294 
-1.4985 -4.0045 -1.7565 -1.4985 -4.4895 -3.931 -3.115 -4.116 -1.7565 -3.8805 -2.742 -3.2345 -1.4985 -4.3585 -3.1385 -4.1895 0 
-5.330501 -5.881001 -2.4195 -5.6305 -7.263 -7.519501 -7.816 -6.440001 -5.652 -6.6415 -4.746 -4.328 -5.6095 -5.808 -8.186001 -4.1895 
-6.5935 -6.624501 -6.571001 -8.037001 -12.1023 -12.6373 -9.846001 -11.1445 -8.871 -8.377001 -5.739 -9.264001 -7.6925 -11.2859 -8.186001 
-7.3385 -11.3212 -9.537001 -13.1913 -17.2201 -14.6673 -14.9337 -14.3635 -10.703 -9.3525 -10.5975 -10.61 -13.5046 -11.2859 
-12.206 -14.2872 -14.4837 -18.3091 -19.2501 -19.755 -18.1527 -16.1955 -11.6785 -14.2848 -11.9435 -16.4221 -13.5046 
