-4.759 
n/a 
n/a 
n/a 
n/a 
-4.759 
n/a 
n/a 
n/a 
n/a 
-4.759 
n/a 
n/a 
n/a 
n/a 
-4.759 
n/a 
n/a 
n/a 
n/a 
-1.7695 -3.3785 -1.4985 -4.0145 -1.7565 -7.696001 -1.756 -4.5305 -2.4265 
-4.1685 -4.6165 -5.0175 -5.004 -8.787001 -8.698501 -5.5275 -6.969501 
-5.3175 -7.549 -5.826 -9.85 -9.653001 -12.7586 -7.994 
-8.425501 -8.5845 -10.264 -10.162 -13.8597 -15.2251 
-9.039001 -13.2455 -10.3245 -14.7565 -16.3262 
-1.7695 -3.922 -1.4985 -4.316 -2.4285 -1.7695 -4.4755 -1.4985 -3.4265 
-4.5985 -4.7665 -6.133 -7.1075 -4.3895 -4.917 -5.1645 -4.713 
-5.177001 -9.090501 -8.703501 -9.3345 -7.4345 -5.483 -7.9115 
-9.48 -12.2596 -10.6875 -12.4959 -8.017 -8.163 
-12.7105 -14.2436 -13.8489 -13.0784 -10.8698 
-1.7695 -1.934 -6.1065 -1.4985 -3.264 -1.7565 -4.2705 -2.4285 -1.7695 -3.0465 -3.0465 -7.6375 -6.8545 
-4.9225 -7.334 -7.5565 -4.0935 -3.6125 -5.6365 -6.7065 -4.3895 -3.683 -6.5785 -11.136 -14.8186 
-8.118 -8.221001 -9.24 -4.178 -6.2175 -7.9655 -8.208 -6.460001 -7.761 -15.0614 -18.3171 
-8.608001 -9.501 -9.268001 -6.6855 -8.403 -9.823501 -10.6465 -11.015 -16.6133 -22.2425 
-9.731501 -9.533501 -11.7911 -8.501 -10.45 -12.4936 -15.2015 -19.8673 -23.7944 
-10.526 -4.816 -1.7695 -3.013 -4.0585 
-15.4696 -6.8415 -3.7215 -6.2585 
-17.4951 -9.449501 -8.6225 
-20.1031 -14.5013 
-25.1549 
