-4.759 
n/a 
n/a 
n/a 
n/a 
-4.759 
n/a 
n/a 
n/a 
n/a 
-4.759 
n/a 
n/a 
n/a 
n/a 
-4.759 
n/a 
n/a 
n/a 
n/a 
-4.613 0 -7.182 0 -4.094 0 
-4.613 -7.182 -7.182 -4.094 -4.094 
-11.0145 -7.182 -11.912 -4.094 
-11.0145 -11.912 -11.912 
-15.7445 -11.912 
-4.613 0 -7.182 0 -10.6015 0 
-4.613 -7.182 -7.182 -10.6015 -10.6015 
-11.0145 -7.182 -18.4195 -10.6015 
-11.0145 -18.4195 -18.4195 
-22.252 -18.4195 
-11.795 0 -2.0935 -8.27 0 
-11.0145 -2.0935 -9.4515 -8.27 
-13.7835 -9.4515 -9.4515 
-21.7037 -9.4515 
-21.7037 
-4.621 0 -7.182 0 -4.094 0 
-4.621 -7.182 -7.182 -4.094 -4.094 
-12.237 -7.182 -11.912 -4.094 
-12.237 -11.912 -11.912 
-16.967 -11.912 
