-4.759 
n/a 
n/a 
n/a 
n/a 
-4.759 
n/a 
n/a 
n/a 
n/a 
-4.759 
n/a 
n/a 
n/a 
n/a 
-4.759 
n/a 
n/a 
n/a 
n/a 
-3.7115 -2.791 -3.61 -2.5045 -1.4985 -4.1475 -2.0935 -2.3615 0 
-4.5375 -6.324 -4.1825 -3.1915 -5.267 -5.153 -3.854 -2.3615 
-6.685 -6.7735 -4.6695 -8.519001 -6.1305 -7.505 -3.854 
-6.9 -7.216001 -8.8085 -9.598001 -8.517 -7.505 
-7.3145 -11.5728 -9.901001 -11.9665 -8.517 
-3.7115 -2.791 -3.047 -1.4985 -4.029 -2.0935 -2.3615 
-4.5375 -5.4875 -4.095 -5.353001 -5.7845 -3.854 
-6.667 -6.937 -7.969 -7.9285 -8.0535 
-7.7425 -10.085 -10.8947 -9.845501 
-10.749 -13.0249 -12.8117 
-2.3615 -8.263 -4.24 
-10.0285 -13.0026 
-14.7681 
n/a 
n/a 
-2.7295 -2.742 -3.047 -1.4985 -3.4635 -4.1985 0 
-4.076 -4.9075 -4.095 -3.6265 -5.726501 -4.1985 
-5.7905 -5.7055 -6.048 -5.739 -5.726501 
-6.893 -7.1585 -9.0425 -5.739 
-8.8525 -10.7474 -9.0425 
