-4.759 
n/a 
n/a 
n/a 
n/a 
-4.759 
n/a 
n/a 
n/a 
n/a 
-4.759 
n/a 
n/a 
n/a 
n/a 
-4.759 
n/a 
n/a 
n/a 
n/a 
-4.426 -1.7565 -1.4985 -3.6115 -4.7285 -4.1555 -3.147 -4.2305 -1.7565 -1.4985 -3.254 0 
-5.47 -2.4195 -4.081 -6.5495 -8.4455 -5.77 -7.584001 -5.3675 -2.4195 -4.4095 -3.254 
-5.9535 -5.180501 -6.670501 -9.978001 -9.541501 -10.718 -9.969501 -6.255 -5.670001 -4.4095 
-8.462501 -7.797 -10.054 -11.0524 -14.4895 -13.1035 -10.9388 -10.057 -5.670001 
-10.2375 -11.2985 -11.1648 -16.0004 -16.875 -14.0728 -14.7408 -10.057 
-4.7995 -1.7695 -4.2305 
-7.886001 -5.2345 
-11.654 
n/a 
n/a 
-1.4985 -4.486 -2.0935 -9.9645 
-5.5485 -6.4045 -12.5013 
-7.8215 -17.1189 
-19.1165 
n/a 
-9.469501 -3.518 
-10.7955 
n/a 
n/a 
n/a 
