-4.759 
n/a 
n/a 
n/a 
n/a 
-4.759 
n/a 
n/a 
n/a 
n/a 
-4.759 
n/a 
n/a 
n/a 
n/a 
-4.759 
n/a 
n/a 
n/a 
n/a 
-3.5065 -3.3715 -3.982 -4.707 -3.251 -2.985 -5.709 -1.934 -3.3715 -3.9035 -1.7565 -1.4985 -3.188 0 -1.4985 -3.8275 -3.7555 -4.4755 -4.173 -1.4985 -3.188 
-6.099 -6.549001 -8.51 -7.344501 -5.601501 -7.9525 -7.4375 -4.622 -5.995 -4.616 -2.4195 -3.619 -3.188 -1.4985 -4.726 -7.6325 -8.585 -6.3995 -4.3745 -3.619 
-9.340501 -9.830001 -11.2919 -9.5105 -10.1465 -9.352 -10.228 -6.2565 -6.0855 -4.895 -4.4095 -3.619 -5.0075 -4.726 -8.651001 -13.0712 -10.468 -6.5745 -5.4615 
-12.6209 -12.6441 -13.4579 -14.1443 -11.684 -12.2703 -11.8625 -6.2765 -6.238501 -5.773 -4.4095 -5.255 -8.105 -8.651001 -13.9223 -14.9542 -10.509 -7.5045 
-15.435 -14.8101 -18.0917 -15.6818 -14.6023 -13.9048 -11.8825 -6.396501 -6.5785 -5.773 -5.975501 -8.416 -12.4802 -13.9223 -15.8053 -14.9952 -11.439 
-3.5065 -4.887 -1.7565 -3.849 -3.982 -3.959 -4.4755 -3.222 -3.948 -3.9035 -1.7565 -3.188 0 -3.8275 -4.4755 -3.222 -3.948 -4.088 -4.021 0 
-9.004001 -6.133 -5.0295 -6.7625 -5.6075 -8.3265 -6.851501 -6.3625 -6.1125 -4.616 -5.13 -3.188 -3.8275 -8.456 -6.851501 -6.3625 -6.41 -8.505501 -4.021 
-10.684 -9.2425 -7.9055 -7.12 -10.3165 -11.3849 -9.6075 -8.192 -6.1715 -8.063001 -5.13 -4.801 -8.456 -9.885 -9.6075 -8.901501 -10.3475 -8.505501 
-13.7935 -10.383 -8.539001 -12.0958 -13.3749 -14.1409 -10.343 -8.3465 -9.2435 -8.063001 -5.8125 -10.181 -9.885 -12.6442 -12.2667 -13.005 -10.3475 
-14.934 -10.611 -13.5936 -15.1542 -16.1309 -14.8764 -10.367 -11.5893 -9.2435 -9.663 -12.7717 -11.61 -12.6442 -15.3034 -16.3702 -13.005 
-1.4985 -3.8275 -4.2745 -4.173 -1.4985 -3.188 -3.433 -3.0365 -3.152 -4.418 -1.7565 -3.3715 -3.982 -3.959 -4.0965 -2.5685 -3.6215 -1.4985 -3.188 
-4.726 -8.335 -7.693501 -4.3745 -3.619 -6.4135 -5.117 -4.453 -8.611501 -5.347 -4.845 -6.549001 -5.6075 -9.366 -7.017 -5.2175 -4.094 -3.619 
-8.898001 -12.3466 -7.889501 -5.4615 -6.6095 -8.134501 -6.4085 -9.036501 -9.234 -8.722 -7.7795 -6.948 -11.2935 -12.9833 -9.9505 -5.7575 -4.561 
-13.654 -12.5426 -9.267501 -8.029 -8.39 -9.4515 -11.383 -9.546501 -12.4642 -11.8889 -8.396501 -12.9376 -14.9108 -15.9168 -10.7065 -6.05 
-13.85 -13.9206 -11.9218 -9.804001 -9.6145 -14.6646 -11.893 -12.7995 -15.6311 -12.5059 -14.4409 -16.5549 -17.8443 -16.6728 -10.999 
-1.934 -3.17 -1.7565 -1.4985 -3.982 -4.39 -2.674 -4.7505 -1.934 -3.17 -4.39 0 -3.0415 -3.8275 -2.7415 -4.4755 -2.925 
-4.8605 -4.179 -2.4195 -4.566 -6.553 -6.435 -8.4585 -5.939 -4.8605 -7.331 -4.39 -3.0415 -7.9185 -5.9615 -6.6505 -7.7625 
-5.8795 -4.497 -5.1565 -7.603001 -7.9425 -12.6023 -9.4595 -9.225 -8.1835 -7.331 -7.361001 -7.9185 -9.5605 -10.199 -10.0475 
-6.0885 -7.6535 -8.207001 -9.076 -14.2228 -13.6033 -12.7697 -12.7386 -8.1835 -10.259 -12.6566 -9.5605 -13.955 -13.7646 
-8.381001 -9.33 -9.842001 -15.4241 -15.2238 -16.9135 -16.2833 -12.7386 -11.2005 -15.5546 -14.2986 -13.955 -17.5206 
