-4.759 
n/a 
n/a 
n/a 
n/a 
-4.759 
n/a 
n/a 
n/a 
n/a 
-4.759 
n/a 
n/a 
n/a 
n/a 
-4.759 
n/a 
n/a 
n/a 
n/a 
-4.4285 -1.7565 -3.1385 -1.934 -3.8735 -2.4945 -2.186 -4.4625 0 
-4.6405 -4.388 -4.522 -4.885 -6.502501 -6.2945 -7.2155 -4.4625 
-6.141 -5.585501 -7.186 -6.921 -10.5797 -11.538 -7.2155 
-7.092 -8.1245 -8.388 -11.0794 -15.8232 -11.538 
-9.4495 -9.4195 -12.7012 -16.3229 -15.8232 
-3.8735 -2.229 -4.9225 -4.4715 -3.383 -3.539 -4.763 0 
-5.3655 -7.3105 -9.1875 -7.390501 -7.052 -8.975 -4.763 
-10.054 -11.9149 -12.1951 -11.4075 -13.6544 -8.975 
-14.6584 -14.9225 -16.2121 -18.0099 -13.6544 
-17.666 -18.9395 -22.8145 -18.0099 
-3.17 -1.7565 -1.4985 -4.1865 -3.1385 -3.152 -3.325 -1.4985 -5.564 -4.4625 
-4.179 -2.4195 -5.177 -6.7955 -5.219 -6.104 -3.898 -7.127501 -10.0415 
-4.497 -5.9285 -7.393001 -8.691 -8.2255 -6.6895 -10.3225 -11.8782 
-8.0255 -7.7915 -9.272 -11.7675 -8.6855 -13.7582 -15.0732 
-10.057 -10.259 -12.3447 -12.2275 -16.0212 -18.5089 
-1.934 -4.1865 -4.02 -3.17 -1.7565 -1.4985 -7.211 -4.221 -3.6845 -4.4625 -2.4285 -5.224 
-5.967 -6.987 -7.2955 -4.179 -2.4195 -8.606501 -12.019 -7.537001 -6.474501 -6.8195 -7.439001 
-8.8245 -10.096 -7.822 -4.497 -9.452001 -13.7283 -15.335 -9.129001 -9.7185 -12.511 
-12.0111 -10.4485 -8.219 -10.2925 -14.5752 -17.0443 -16.927 -12.5086 -15.5224 
-12.3636 -10.7775 -14.1185 -15.4157 -17.8912 -18.6363 -20.3066 -18.3125 
