-4.759 
n/a 
n/a 
n/a 
n/a 
-4.759 
n/a 
n/a 
n/a 
n/a 
-4.759 
n/a 
n/a 
n/a 
n/a 
-4.759 
n/a 
n/a 
n/a 
n/a 
-1.4985 -3.9655 -4.2245 -1.756 -1.4985 -4.873 -5.6035 -12.16972 0 -11.139 0 0 -1.4985 -5.2075 0 -5.4135 -4.7955 -4.717 0 -11.2915 0 0 -4.0905 -10.9935 0 -11.653 0 -2.4945 -1.4985 -4.015 -4.269 -1.934 -3.8005 -3.5125 
-4.9875 -6.7905 -5.7035 -3.0405 -6.0205 -9.676001 -18.66922 -12.16972 -8.913 -8.913 0 -1.4985 -6.066 -5.2075 -5.4135 -10.147 -8.5585 -4.717 -9.3015 -9.3015 0 -4.0905 -15.8354 -10.9935 -9.6225 -9.6225 -2.4945 -3.9315 -5.216001 -7.43 -5.609 -4.8035 -7.1505 
-7.933001 -7.992 -6.853 -7.7895 -11.5547 -23.27392 -18.66922 -21.08272 -8.913 -8.913 -1.4985 -6.066 -6.066 -9.766001 -10.147 -13.91 -8.5585 -15.0325 -9.3015 -9.3015 -4.0905 -15.8354 -15.8354 -20.616 -9.6225 -13.6821 -3.9315 -7.922 -8.806001 -8.817501 -8.9285 -8.379001 
-9.3265 -9.182 -12.0236 -13.5687 -25.15262 -23.27392 -27.58222 -21.08272 -8.913 -11.7041 -6.066 -6.066 -11.3953 -14.5655 -13.91 -13.91 -19.5616 -15.0325 -9.3015 -14.6726 -15.8354 -15.8354 -25.4579 -20.616 -13.6821 -15.1191 -7.922 -11.8366 -10.459 -12.448 -12.5944 
-9.899501 -14.4576 -17.8028 -27.16662 -25.15262 -32.18692 -27.58222 -21.08272 -11.7041 -16.5138 -6.066 -11.3953 -16.1948 -18.3285 -13.91 -24.9131 -19.5616 -15.0325 -14.6726 -26.4175 -15.8354 -25.4579 -25.4579 -24.6756 -15.1191 -19.1096 -11.8366 -13.4896 -14.0895 -16.1139 

n/a 
n/a 
n/a 
n/a 
-1.4985 -5.177 -5.2875 0 -4.3925 -4.4175 -12.16972 -3.9055 -4.5225 0 -5.1995 -1.934 -4.5905 -4.4175 0 -2.356 -3.1435 -4.693 -4.9775 -4.939 -5.665 -5.228 -1.934 -4.3925 -4.4175 -2.4265 -2.7415 -1.4985 -3.0835 -5.2875 -1.7695 -5.171 -1.4985 -4.4975 -1.7565 -6.614501 0 -2.9705 -4.3195 -1.4985 -5.6425 -6.1545 -1.7565 -2.5685 -5.5115 -3.834 -1.4985 -3.498 -1.7565 -4.947 -3.8005 -3.325 -1.4985 -5.177 -5.2875 0 -3.8005 -3.43 -3.4155 -4.8435 -1.934 -3.3715 -3.8195 -1.7565 -1.4985 -3.7865 -1.756 -4.1595 
-6.706 -6.9235 -5.2875 -4.3925 -8.316001 -16.99082 -16.07522 -8.240001 -4.5225 -5.1995 -6.1755 -7.6395 -7.856501 -4.4175 -2.356 -4.6055 -6.62 -9.436501 -8.196501 -10.598 -8.139501 -7.085 -7.504 -8.316001 -7.0895 -3.681 -4.063 -3.535 -7.726501 -7.4785 -5.706 -5.887001 -5.694 -5.344501 -7.5425 -6.614501 -2.9705 -6.070001 -5.1515 -6.491 -8.853001 -7.149001 -3.938 -8.243 -9.0485 -4.5435 -4.0295 -4.005 -6.4835 -7.3095 -7.114 -3.898 -6.706 -6.9235 -5.2875 -3.8005 -6.974501 -6.395 -7.356501 -5.1595 -4.622 -5.8465 -4.542 -2.4195 -4.853 -4.7705 -5.492 
-7.283501 -6.9235 -8.502001 -8.316001 -21.42432 -20.89632 -20.40972 -8.240001 -10.4595 -6.1755 -12.6302 -9.0585 -7.856501 -7.3055 -4.6055 -8.22 -10.485 -10.362 -10.6885 -13.0725 -9.145 -10.757 -9.1995 -10.31 -7.783 -4.946 -5.12 -8.021501 -9.3225 -10.459 -6.3725 -8.517 -5.894501 -9.512501 -7.5425 -8.691001 -6.070001 -6.681 -9.351501 -9.189001 -9.259501 -8.764501 -9.250001 -10.6215 -9.612 -5.6775 -4.188 -8.758501 -8.1485 -10.2385 -7.581501 -8.7155 -7.283501 -6.9235 -7.703001 -6.974501 -9.615001 -8.158 -7.6045 -8.349 -6.0845 -6.285 -5.285 -5.606 -5.813 -5.559 
-7.283501 -8.5165 -8.974501 -21.42432 -25.32982 -25.23082 -20.40972 -14.4826 -12.3227 -12.6302 -14.0492 -9.0585 -10.757 -9.064501 -8.22 -12.2206 -11.4105 -12.854 -13.163 -14.078 -12.8754 -12.4525 -10.5865 -10.406 -8.894 -5.932 -9.6685 -9.422501 -10.635 -10.589 -9.094501 -8.738001 -9.880001 -9.512501 -9.323 -10.3615 -6.681 -10.3345 -10.599 -9.427501 -10.4955 -10.6605 -10.635 -10.642 -10.437 -5.7565 -9.072001 -9.878501 -10.403 -10.313 -9.363001 -9.185 -7.283501 -8.638 -10.647 -9.615001 -10.762 -8.388 -9.896501 -8.8325 -6.599 -6.775001 -8.0865 -6.6535 -6.9055 
-9.02 -8.989 -23.14982 -25.32982 -29.66432 -25.23082 -26.65232 -16.3458 -18.7774 -14.0492 -14.0492 -12.33 -12.516 -12.8656 -12.2206 -13.1461 -13.9025 -15.3285 -14.1685 -17.8084 -14.5709 -13.8395 -10.7075 -10.7715 -9.7755 -10.4415 -10.0425 -10.635 -10.7715 -10.782 -9.315001 -10.7175 -9.880001 -10.599 -10.635 -10.4545 -10.3345 -10.6445 -10.6425 -10.515 -10.6765 -10.683 -10.656 -10.701 -10.4505 -10.3675 -9.897 -10.6775 -10.5065 -10.679 -10.045 -9.185 -9.640501 -10.7575 -10.779 -10.762 -10.7675 -10.172 -10.517 -9.1155 -7.0175 -9.409 -8.7395 -7.6115 
-3.1495 -4.873 0 -5.4135 -4.717 -9.009001 -3.326 -11.139 -1.756 0 -10.2945 -5.5735 0 -4.0905 -5.585 -7.8355 0 -11.653 0 -1.7565 -3.776 0 
-8.360001 -4.873 -5.4135 -9.299001 -14.74 -12.4818 -13.232 -11.4905 -1.756 -10.2945 -15.9816 -5.5735 -4.0905 -9.202501 -14.1675 -7.8355 -9.6225 -9.6225 -1.7565 -5.3685 -3.776 
-8.360001 -8.954 -9.299001 -19.4624 -18.2128 -22.5466 -14.7593 -10.2815 -13.0591 -15.9816 -15.9816 -10.674 -9.202501 -18.0784 -14.1675 -17.719 -9.6225 -12.5731 -5.3685 -5.3685 
-12.9348 -13.0507 -19.4624 -22.9352 -28.2776 -23.9151 -14.7593 -22.06 -18.7462 -15.9816 -21.0821 -15.786 -18.0784 -18.0784 -24.051 -17.719 -12.5731 -16.4111 -5.3685 
-17.0315 -23.2141 -22.9352 -33 -29.6461 -23.9151 -26.5378 -27.7471 -18.7462 -21.0821 -26.1941 -24.6619 -18.0784 -27.9619 -24.051 -20.6696 -16.4111 -16.4111 
