-4.759 
n/a 
n/a 
n/a 
n/a 
-4.759 
n/a 
n/a 
n/a 
n/a 
-4.759 
n/a 
n/a 
n/a 
n/a 
-4.759 
n/a 
n/a 
n/a 
n/a 
-1.934 -1.4985 -3.486 -3.158 -3.676 -3.9955 -1.934 -7.861001 -3.8275 0 -1.756 -4.8335 -3.277 -2.5045 -1.8085 -3.213 -3.519 0 -3.074 -5.62 -3.3755 -2.0935 -5.453 -4.6085 0 -4.8535 0 -4.5275 -4.7695 -2.356 -3.277 
-2.6125 -3.5655 -5.6975 -7.653501 -7.6175 -6.0695 -8.6855 -11.5375 -3.8275 -1.756 -6.3105 -8.625 -4.9585 -3.3625 -5.144 -7.5135 -3.519 -3.074 -7.941501 -7.84 -4.9855 -7.875 -7.042 -4.6085 -4.8535 -4.8535 -4.5275 -9.561501 -6.843 -4.76 
-4.5805 -5.870501 -9.592501 -12.3434 -9.579 -13.765 -15.0066 -12.8561 -5.1855 -6.3105 -9.21 -10.254 -5.8995 -6.574 -10.275 -7.5135 -7.061 -7.941501 -9.598001 -7.993001 -11.2936 -8.809501 -7.042 -7.273 -4.8535 -8.999001 -9.561501 -11.8334 -8.6 
-6.246 -9.712001 -14.4634 -14.3049 -17.8115 -19.3654 -15.1098 -14.0931 -9.6485 -9.21 -11.0032 -11.195 -9.0655 -12.1994 -10.275 -11.4157 -12.2523 -9.598001 -9.661 -14.5583 -12.2281 -8.809501 -10.4185 -7.273 -8.999001 -14.2912 -11.8334 -13.5904 
-10.476 -14.6619 -16.4249 -22.5374 -23.2413 -19.3654 -16.3468 -19.1157 -12.811 -11.0032 -11.9442 -14.361 -15.0051 -12.1994 -14.3454 -16.607 -13.9088 -9.661 -16.3685 -15.4928 -12.2281 -12.3936 -10.4185 -10.0285 -14.2912 -16.5631 -13.5904 
-2.5045 -1.4985 -3.486 -3.158 -3.676 -3.9955 -1.4985 -3.8275 -4.005 -3.458 -4.185 -1.756 -3.676 -2.9705 -4.8165 -3.676 -1.7695 -2.489 -1.4985 -3.188 -2.229 -4.0385 -3.519 -1.756 -3.074 -4.523 -1.7695 -4.544 -9.644501 -4.6085 0 -10.445 -1.756 -4.5275 
-3.1915 -3.5655 -5.6975 -7.653501 -7.6175 -5.0175 -4.726 -8.038 -6.658 -7.418 -5.7355 -5.918 -6.5255 -7.307501 -8.571 -5.8305 -3.1405 -3.9675 -3.619 -4.279 -5.8865 -6.646 -4.9065 -4.566 -6.120501 -5.5405 -5.208 -15.2423 -14.4736 -4.6085 -10.445 -12.2984 -7.255 
-4.538 -5.870501 -9.592501 -12.3434 -8.388 -6.986 -9.027 -10.76 -10.459 -7.478001 -8.519001 -8.525001 -10.1345 -11.4864 -9.790501 -7.162 -4.568 -6.434 -4.3695 -8.331 -8.298 -8.1315 -7.769 -7.5385 -6.982 -8.7255 -16.4233 -20.0714 -14.4736 -16.2029 -12.2984 -17.7974 
-8.533 -9.712001 -14.4634 -13.1139 -9.177 -11.6204 -11.631 -14.561 -10.4995 -9.456 -11.2734 -12.2252 -14.4732 -12.7059 -9.808001 -8.41 -6.6765 -6.519 -8.437501 -8.9355 -9.872001 -11.403 -10.9029 -8.399 -10.2485 -20.1138 -21.2524 -20.0714 -26.068 -18.0563 -17.7974 
-12.4117 -14.6619 -15.2339 -13.9029 -14.0728 -14.2244 -15.432 -14.6015 -12.7689 -12.2868 -14.9736 -16.5639 -15.6927 -12.7234 -10.539 -9.3925 -6.7315 -10.1755 -8.973001 -10.1265 -13.1887 -14.5369 -11.7634 -11.7169 -21.6368 -24.9429 -21.2524 -31.6658 -27.9214 -23.5553 
-1.934 -1.4985 -3.486 -3.158 -1.4985 -6.827 -4.4065 -2.3345 -4.185 -1.934 -1.4985 -3.4975 -3.8275 -4.196 -3.676 -2.229 -8.767 -1.756 -5.524 -4.185 -1.7695 -5.5385 -4.535 -4.6085 0 -9.2095 -1.756 -4.5275 0 
-2.6125 -3.5655 -5.6975 -4.725 -7.547501 -11.1415 -5.2235 -7.1005 -6.3035 -2.6125 -4.3125 -6.321 -8.502 -8.732 -4.593 -10.451 -10.089 -6.6895 -11.136 -6.528001 -6.06 -10.281 -4.6455 -4.6085 -9.2095 -11.2771 -7.255 -4.5275 
-4.5805 -5.870501 -6.518 -11.0948 -12.5024 -11.9585 -10.375 -8.1565 -6.987 -5.731 -7.139501 -10.513 -10.0995 -8.9505 -14.1894 -11.773 -15.1425 -12.4157 -13.479 -10.1 -11.0121 -10.5525 -4.6455 -14.9674 -11.2771 -16.7761 -7.255 
-6.246 -6.805501 -13.1622 -16.0497 -13.3194 -17.11 -11.431 -8.655001 -9.387501 -8.1575 -12.0183 -12.1105 -10.1205 -18.9993 -15.5114 -16.8265 -20.8687 -14.7587 -17.051 -15.0951 -11.2836 -10.5525 -15.5472 -17.035 -16.7761 -16.7761 
-7.164001 -13.3559 -18.1171 -16.8667 -18.4709 -18.166 -11.9295 -11.3809 -12.5498 -13.2943 -13.6158 -12.1315 -21.5245 -20.3213 -20.5649 -22.5527 -23.2117 -18.3307 -22.0461 -15.3666 -11.2836 -21.4542 -17.6148 -22.534 -16.7761 
-3.5455 -1.4985 -3.486 -3.158 0 -3.5065 -1.4985 -3.8275 -3.458 -4.185 -1.756 -3.676 -2.7415 -3.9955 -2.3345 -3.676 0 -2.925 -4.3215 -1.4985 -3.188 -2.925 -2.4945 -1.4985 -3.17 -4.377 -3.59 -1.934 -1.4985 -3.962 -3.188 0 -1.756 -2.3615 -4.2705 -3.277 -1.7695 -3.613 -4.535 -5.873 0 -5.9205 -1.756 -4.5275 -3.325 -2.985 -3.4985 0 
-3.91 -3.5655 -5.6975 -3.158 -3.5065 -4.358 -4.726 -6.105 -7.418 -5.7355 -5.918 -6.2495 -6.356 -5.7745 -6.6285 -3.676 -2.925 -6.690001 -5.252 -3.619 -5.952001 -3.7675 -3.9315 -3.7115 -5.395 -7.402 -5.272 -2.6125 -4.324 -5.6585 -3.188 -1.756 -4.4615 -5.4205 -6.122 -4.261 -4.563 -9.7355 -10.6215 -5.873 -5.9205 -8.834001 -7.255 -8.071501 -5.788 -6.239 -3.4985 
-5.9685 -5.870501 -5.6975 -5.8645 -4.358 -6.871 -6.6875 -8.797501 -7.478001 -8.519001 -8.063001 -9.824 -6.6305 -9.567 -6.6285 -6.5755 -6.690001 -7.4395 -7.793 -6.146 -6.725 -5.322001 -5.324 -5.598001 -7.588 -7.7815 -5.747 -5.8 -5.719 -5.6585 -4.863 -4.4615 -7.3735 -7.465 -6.812 -6.0475 -10.218 -15.8828 -10.6215 -12.7529 -8.834001 -14.4586 -10.31 -10.757 -6.919 -6.239 
-7.395 -5.870501 -8.376 -6.663 -6.871 -8.9165 -9.196501 -8.809 -9.456 -10.7575 -11.7401 -10.313 -10.0845 -9.567 -9.4755 -10.361 -7.4395 -10.7025 -11.4294 -6.8945 -7.941501 -6.600501 -7.308001 -7.741 -7.814 -7.8265 -8.52 -6.685501 -5.719 -6.9795 -7.0045 -7.3735 -8.619 -7.9605 -10.2175 -12.8539 -16.5475 -15.8828 -17.5014 -15.6664 -14.4586 -17.5136 -12.9791 -11.888 -6.919 
-7.395 -8.502501 -9.23 -8.994 -8.9165 -11.7329 -9.2025 -10.5225 -11.7709 -14.4346 -12.2291 -13.767 -10.0845 -12.288 -13.3048 -11.1105 -10.7025 -14.3389 -12.1779 -8.104501 -9.2775 -8.469501 -9.2725 -7.906001 -7.85 -10.403 -8.789001 -6.685501 -7.008501 -9.0235 -10.0095 -8.619 -9.051001 -11.4268 -16.3033 -19.1834 -16.5475 -22.7627 -20.4149 -21.291 -17.5136 -20.1827 -14.1101 -11.888 
