-4.759 
n/a 
n/a 
n/a 
n/a 
-4.759 
n/a 
n/a 
n/a 
n/a 
-4.759 
n/a 
n/a 
n/a 
n/a 
-4.759 
n/a 
n/a 
n/a 
n/a 
-4.649 -2.186 -3.17 -3.699 -3.6765 -1.934 -5.8525 -3.8495 0 
-7.0085 -5.1385 -4.663 -6.846 -5.201 -7.887 -10.0195 -3.8495 
-10.2135 -6.321 -7.153501 -7.2575 -12.08 -12.5678 -10.0195 
-11.656 -10.3745 -7.392 -14.8429 -16.7608 -12.5678 
-15.7095 -10.5865 -15.1592 -19.5237 -16.7608 
-8.110001 -3.213 -1.934 -7.2955 -3.5155 -2.5045 -4.9295 -1.756 -4.8565 -3.6825 -2.7415 -4.1205 -1.7695 -2.489 -3.4155 0 
-11.7694 -4.4465 -8.481001 -10.8415 -5.822001 -7.9715 -6.6345 -6.4985 -6.5375 -6.0635 -5.631001 -5.1155 -3.1405 -5.3505 -3.4155 
-13.0029 -11.6145 -12.2038 -13.148 -11.7054 -9.720001 -8.179501 -7.687 -8.6 -9.146501 -6.4545 -5.2255 -6.377 -5.3505 
-20.1709 -15.3373 -14.5103 -19.0314 -13.4539 -10.6495 -9.604 -10.8671 -11.7662 -9.962 -6.543 -8.797 -6.377 
-23.8937 -17.6438 -20.3937 -20.7799 -14.3834 -12.074 -13.0653 -14.0333 -12.5817 -10.0365 -10.2695 -8.797 
-4.649 -2.229 -3.1335 -1.7695 -1.4985 -3.1385 -2.7415 -4.1205 -1.8085 -3.301 -2.871 -3.4765 -2.7835 -2.9805 -2.7415 -1.8085 -4.156 -4.328 -2.4285 -1.4985 -4.2245 -1.7565 -4.8565 
-6.2345 -5.622 -4.809 -2.7955 -4.2575 -6.375501 -5.631001 -5.198 -4.019 -5.5955 -6.31 -4.429 -4.6105 -4.004 -3.891 -6.1235 -6.2095 -6.4185 -4.002501 -5.2345 -5.277 -6.2885 
-10.3475 -7.0745 -5.61 -5.4345 -7.3025 -9.036 -6.453 -7.07 -5.796 -8.3245 -7.1435 -6.0005 -5.8465 -5.075 -7.6325 -8.2655 -8.635 -7.09 -7.6575 -5.753 -7.7395 
-11.8 -7.7025 -7.4205 -8.4335 -10.0185 -9.863501 -8.125 -9.132 -8.4315 -8.842 -8.578501 -7.1905 -6.992001 -8.299001 -10.0605 -9.882 -9.4385 -9.4635 -7.77 -8.2875 
-12.428 -9.4805 -10.3095 -11.2385 -10.846 -11.6325 -10.0245 -11.9057 -8.919001 -10.1185 -9.72 -8.189501 -10.459 -10.9256 -11.7732 -10.7633 -11.9624 -9.478001 -11.1659 
-8.110001 -3.6175 -3.6615 -2.186 -4.1205 -2.5045 -3.301 -3.8105 -2.9805 -1.934 -5.3255 -3.8685 -1.756 -4.9295 -3.8685 
-12.1739 -6.3095 -5.5065 -5.007 -5.3175 -5.116 -7.489501 -5.6295 -6.2405 -6.7875 -8.236 -5.283 -7.16 -8.776 
-14.8659 -7.9835 -8.113501 -6.317 -7.954 -9.4385 -9.203001 -9.003 -10.4425 -10.4185 -9.459001 -10.553 -10.1945 
-16.5399 -10.3745 -9.448501 -8.9445 -12.0733 -11.3082 -12.8765 -13.685 -14.9845 -11.6415 -14.746 -13.5875 
-18.9309 -11.7095 -12.1772 -13.1604 -13.943 -14.9817 -17.5585 -18.227 -16.2075 -16.9285 -17.7805 
