-4.759 
n/a 
n/a 
n/a 
n/a 
-4.759 
n/a 
n/a 
n/a 
n/a 
-4.759 
n/a 
n/a 
n/a 
n/a 
-4.759 
n/a 
n/a 
n/a 
n/a 
-3.8665 -9.252501 -1.756 -7.0495 -4.417 0 -3.75 -4.1115 -5.2415 -2.742 -4.99 -4.236 
-14.5202 -10.143 -9.001501 -9.828001 -4.417 -3.75 -7.369 -8.137001 -7.7865 -6.297 -9.824501 
-15.4107 -17.3885 -12.019 -9.828001 -7.210001 -7.369 -11.8131 -10.703 -11.9215 -11.3695 
-22.6562 -20.406 -12.019 -12.621 -11.5822 -11.8131 -14.3791 -14.838 -16.994 
-25.6737 -20.406 -14.812 -16.9932 -16.0263 -14.3791 -18.5141 -19.9105 
-4.1495 -8.8325 -1.756 -9.1665 -4.2085 0 -4.8665 -4.2085 -3.9615 -4.02 -7.0015 0 -1.756 -3.135 -4.421 -3.5015 -1.934 -4.1225 -4.197 -2.9705 -5.1065 -2.8705 -4.394 0 
-13.9634 -10.575 -11.9311 -13.903 -4.2085 -4.8665 -7.629001 -7.169001 -7.8265 -8.5355 -7.0015 -1.756 -4.5755 -6.4125 -6.417 -4.704 -5.261 -6.73 -7.1375 -8.590501 -6.8505 -6.707 -4.394 
-15.7059 -20.7501 -16.6676 -13.903 -9.0375 -7.629001 -9.9405 -11.2492 -12.8588 -8.5355 -8.385 -4.5755 -7.8835 -9.528501 -8.116 -7.8855 -9.085 -9.3015 -13.1383 -10.4115 -10.2755 -6.707 
-25.881 -25.4866 -16.6676 -18.732 -12.0516 -9.9405 -14.1457 -16.2815 -12.8588 -10.287 -11.4233 -7.8835 -11.0363 -10.7615 -11.5913 -11.9469 -11.8949 -15.3719 -14.9593 -13.8365 -10.2755 
-30.6175 -25.4866 -21.4966 -21.7461 -14.3631 -14.1457 -19.178 -16.2815 -14.6103 -13.3253 -14.7313 -11.0363 -12.2693 -14.2368 -15.6527 -14.7568 -17.9653 -17.1929 -18.3843 -13.8365 
-4.1495 -8.8325 -1.756 -7.0495 -4.686 0 -3.641 -4.6165 -4.686 -4.2085 0 -3.75 -4.693 -3.45 -2.4945 -4.4695 -4.8595 -4.088 
-13.9634 -10.575 -9.001501 -12.6785 -4.686 -3.641 -9.788501 -9.8055 -7.989501 -4.2085 -3.75 -7.842501 -10.375 -5.354 -6.5845 -7.428 -7.268001 
-15.7059 -17.8205 -14.8695 -12.6785 -6.912001 -9.788501 -15.0573 -13.23 -7.989501 -7.5425 -7.842501 -14.1923 -12.279 -9.518 -9.5585 -9.1695 
-22.9514 -23.6885 -14.8695 -14.9045 -14.5239 -15.0573 -18.4818 -13.23 -11.8403 -12.199 -14.1923 -16.0963 -16.443 -12.8342 -11.64 
-28.8194 -23.6885 -17.0955 -22.5164 -19.7927 -18.4818 -18.4818 -17.0808 -16.4968 -18.5488 -16.0963 -20.2603 -19.7592 -14.9157 
-3.9745 -5.3545 -1.7565 -12.16972 -1.756 -7.0495 -4.147 -3.8195 0 -3.641 -4.2085 -3.4425 0 -4.1225 -4.1115 -3.609 -2.4945 -3.074 -4.1495 -3.609 
-7.2775 -6.639 -14.87542 -13.92572 -9.001501 -9.621 -6.963 -3.8195 -3.641 -7.6895 -6.635 -3.4425 -4.1225 -7.569501 -8.0695 -5.377501 -4.4205 -7.456 -7.644501 
-9.491501 -20.40152 -16.63142 -21.17122 -11.812 -14.0982 -6.963 -7.451 -7.6895 -9.832001 -6.635 -6.757 -7.569501 -12.2385 -10.2595 -7.3885 -8.1955 -11.2976 
-23.16742 -22.15752 -23.87692 -23.98172 -16.2892 -14.0982 -9.951 -12.1651 -9.832001 -9.832001 -9.874001 -11.3202 -12.2385 -14.4285 -12.2705 -11.4955 -12.0939 
-24.92342 -29.40302 -26.68742 -28.45892 -16.2892 -17.0862 -15.6179 -14.3076 -9.832001 -13.1872 -15.3984 -15.9892 -14.4285 -16.4395 -16.3775 -15.3939 
