-4.759 
n/a 
n/a 
n/a 
n/a 
-4.759 
n/a 
n/a 
n/a 
n/a 
-4.759 
n/a 
n/a 
n/a 
n/a 
-4.759 
n/a 
n/a 
n/a 
n/a 
-3.047 -5.189 -1.7565 -3.8735 0 -4.1865 -5.189 -2.0935 -2.645 -2.915 -2.9805 -2.186 -1.4985 -3.8385 -1.7565 -1.4985 -7.422501 0 -2.871 -4.445 -2.186 -4.648 -2.0935 -3.345 -3.1715 0 -2.872 -3.2615 -1.4985 -4.655 -4.868 -4.4485 
-9.116 -6.1915 -5.112 -3.8735 -4.1865 -9.7705 -7.1565 -3.883 -3.9535 -6.392 -4.1635 -3.339 -4.778501 -4.716001 -2.4195 -8.415501 -7.593 -2.871 -7.848001 -6.545 -6.078 -6.227 -4.212 -5.613501 -3.1715 -2.872 -5.3645 -4.032 -5.681001 -9.946001 -6.1485 
-10.1515 -9.4275 -5.112 -6.232 -9.7705 -11.777 -8.8015 -4.1615 -7.892 -7.7825 -5.312 -6.4125 -5.202 -5.204 -8.828501 -8.0815 -10.1185 -7.848001 -9.6945 -8.506001 -7.476 -7.883 -6.502 -5.613501 -5.998 -5.3645 -6.353 -7.99 -10.411 -10.3865 
-13.2349 -9.4275 -7.423 -12.697 -11.777 -13.422 -8.886001 -8.231501 -9.219001 -8.942 -7.438001 -6.582 -5.5205 -11.2455 -8.7775 -10.6095 -15.5485 -9.6945 -10.76 -9.847501 -8.841001 -9.889501 -6.502 -8.184 -8.5985 -6.353 -10.122 -13.0506 -10.566 
-13.2349 -11.9111 -14.108 -14.7035 -13.422 -13.5065 -13.7922 -9.4805 -10.4955 -10.7495 -7.587 -6.8545 -11.7842 -11.5287 -11.4311 -16.0395 -17.395 -10.76 -12.1015 -11.6103 -10.9169 -9.889501 -8.8985 -11.0257 -9.384501 -10.122 -15.1826 -13.2056 
-3.9555 0 -1.4985 -3.757 -2.186 -1.4985 -4.156 -1.7565 -1.4985 -4.257 -3.436 -1.4985 -4.698 -4.61 -3.9995 -1.7695 -3.5035 0 -2.4265 -2.7765 -2.489 -5.0675 -1.4985 -3.826 -4.0175 -1.7565 -1.4985 -4.61 0 -2.4265 -2.186 -5.8365 -1.4985 -4.7485 -1.756 -2.8965 -4.4085 -1.7565 -3.7745 -3.5035 -1.756 -4.703 -3.774 0 
-3.9555 -1.4985 -4.5435 -5.8005 -3.339 -4.9965 -5.161 -2.4195 -5.0245 -7.5545 -4.213 -5.740001 -8.281 -8.883 -5.2605 -5.7555 -3.5035 -2.4265 -4.346 -3.495 -8.5955 -6.114 -4.4325 -5.7725 -5.4215 -2.4195 -5.7515 -4.61 -2.4265 -3.292 -7.898001 -6.9255 -5.63 -6.234 -3.751 -6.408 -5.701 -5.2935 -7.865001 -4.74 -6.916 -8.662001 -3.774 
-5.7515 -4.5435 -6.131001 -6.921 -6.3605 -5.929 -5.796 -5.709001 -8.0555 -8.274 -7.6295 -9.5065 -13.249 -9.906501 -9.092001 -5.7555 -5.955501 -4.346 -4.728 -9.93 -9.995 -9.069 -6.209001 -7.0765 -5.642001 -6.777501 -5.7515 -7.058001 -3.292 -9.347 -9.086 -9.8585 -6.9355 -8.151501 -7.063001 -7.3055 -8.964001 -9.726001 -9.562501 -8.8645 -11.0764 -8.662001 
-7.832 -6.131001 -7.458 -8.377001 -7.4385 -6.4475 -7.3925 -8.873 -8.873501 -11.9825 -11.691 -15.2157 -14.2725 -13.9184 -9.092001 -8.290501 -7.932 -4.728 -11.3502 -11.4703 -13.0346 -10.61 -7.273001 -7.2385 -10.9728 -6.777501 -7.8995 -7.764 -9.347 -10.6745 -12.2092 -10.637 -8.855 -9.928 -7.7275 -10.76 -13.7079 -11.5631 -13.953 -13.2589 -11.0764 
-9.21 -7.458 -8.4735 -9.509501 -7.9095 -8.201 -10.434 -9.498501 -12.6542 -16.044 -17.4002 -16.2392 -18.2844 -13.9184 -11.8428 -10.334 -8.38 -11.3502 -12.8905 -14.5099 -14.5756 -11.674 -7.410501 -12.8989 -10.9728 -9.017501 -8.745001 -14.0892 -10.6745 -13.7977 -12.9877 -12.5565 -9.975 -11.1899 -11.214 -15.5039 -15.545 -15.9536 -18.3474 -13.2589 
-3.9555 0 -3.757 -2.186 -1.4985 -3.8385 -1.7565 -4.0415 0 -2.9805 -2.8645 -1.4985 -3.826 -3.519 -2.264 -4.698 -4.61 -3.4765 -3.436 -4.4485 -1.7565 -3.5035 0 -2.9805 -3.074 -4.0705 -3.456 -1.7565 -2.5685 -1.4985 -4.7485 -1.756 -2.8965 -4.285 -4.4085 -4.6065 
-3.9555 -3.757 -5.8005 -3.339 -4.778501 -4.716001 -5.4955 -4.0415 -2.9805 -4.3245 -4.3545 -4.4325 -7.666 -5.686 -6.926001 -8.281 -7.7415 -5.639 -8.150001 -5.774 -4.6725 -3.5035 -2.9805 -4.8805 -6.267 -5.944 -4.7445 -3.938 -3.7015 -5.63 -6.234 -3.751 -6.3025 -6.9515 -8.474501 
-6.5405 -5.8005 -6.921 -6.4125 -5.202 -8.096001 -5.4955 -7.1505 -4.3245 -5.9285 -7.101501 -8.2335 -10.411 -9.578501 -11.3864 -12.1075 -9.6555 -10.702 -9.1575 -8.4135 -4.6725 -6.269 -4.8805 -7.5575 -7.5475 -5.9705 -6.344 -4.8455 -8.303 -6.9355 -8.151501 -6.8365 -8.72 -11.5349 
-10.733 -6.921 -8.3625 -6.582 -8.721001 -8.096001 -9.8105 -8.4995 -5.9285 -8.6485 -9.437501 -11.2247 -14.3035 -14.4623 -15.2129 -14.0215 -14.8401 -11.7095 -12.3174 -8.4135 -7.078001 -7.7155 -7.5575 -8.926001 -7.598 -7.126 -6.888 -8.9385 -9.7885 -8.855 -10.5035 -9.1455 -13.581 
-11.8535 -8.3625 -8.374001 -10.733 -8.721001 -13.1016 -10.65 -10.389 -8.6485 -11.0991 -13.2809 -15.1172 -19.1873 -18.2888 -17.1269 -19.2061 -15.8476 -14.8694 -12.3174 -11.4678 -8.4425 -10.2645 -8.926001 -9.011001 -9.054 -7.568001 -11.6056 -10.5535 -11.8026 -11.3146 -12.8125 -13.9819 
-4.1375 0 -3.757 -1.7565 -4.0415 -3.3785 -3.9725 0 -4.698 -10.0425 -3.5035 -2.186 -3.826 -6.8335 -4.763 0 
-4.1375 -3.757 -4.5665 -5.4955 -7.232 -8.0535 -3.9725 -4.698 -15.9399 -13.7796 -5.432 -6.248 -9.998501 -10.6095 -4.763 
-8.735001 -4.5665 -8.697001 -9.2115 -12.5318 -8.0535 -8.6815 -15.9399 -19.677 -15.7081 -9.6225 -13.1211 -13.9683 -10.6095 
-10.287 -8.697001 -13.061 -15.1853 -12.5318 -13.1169 -20.1878 -19.677 -21.6055 -19.8986 -16.6582 -17.0909 -13.9683 
-14.4175 -13.061 -19.0348 -15.1853 -17.5952 -24.6232 -23.9249 -21.6055 -25.796 -26.9343 -20.628 -17.0909 
