-4.759 
n/a 
n/a 
n/a 
n/a 
-4.759 
n/a 
n/a 
n/a 
n/a 
-4.759 
n/a 
n/a 
n/a 
n/a 
-4.759 
n/a 
n/a 
n/a 
n/a 
-7.671 -4.0245 -7.671 -4.0245 -2.871 
-12.4867 -12.8463 -12.4867 -7.3295 
-21.3085 -17.662 -15.7917 
-26.1242 -20.967 
-29.4292 
-8.92 -9.979 0 -8.92 -9.979 -2.871 -6.9925 
-10.5135 -9.979 -8.92 -10.5135 -12.8918 -10.3615 
-10.5135 -18.9408 -10.5135 -13.4263 -20.3823 
-19.4753 -20.5343 -13.4263 -20.9168 
-21.0688 -23.4471 -20.9168 
-9.043501 -9.979 0 -10.638 -9.979 -8.670501 
-19.2363 -9.979 -10.638 -21.0438 -18.6913 
-19.2363 -20.6588 -21.0438 -29.7561 
-29.9161 -31.0646 -29.7561 
-40.3219 -39.7769 
-8.686501 -9.979 -2.871 -3.2785 
-11.0145 -12.8918 -7.398001 
-13.9273 -17.4188 
-18.4543 
n/a 
