-4.759 
n/a 
n/a 
n/a 
n/a 
-4.759 
n/a 
n/a 
n/a 
n/a 
-4.759 
n/a 
n/a 
n/a 
n/a 
-4.759 
n/a 
n/a 
n/a 
n/a 
-4.153 -1.7565 -1.4985 -3.995 -1.934 -1.4985 -4.7885 -4.1455 -1.7565 -4.6985 -2.186 -5.327 -4.323 
-5.717 -2.4195 -4.712 -5.975 -2.6125 -5.282001 -6.302001 -5.11 -6.739501 -6.187 -7.627501 -7.6995 
-6.319001 -5.2205 -6.419001 -6.551 -6.3055 -6.639 -6.596 -11.1792 -8.5185 -11.929 -10.3905 
-8.844501 -6.901 -7.0835 -10.1145 -8.2925 -6.7995 -13.2604 -12.9582 -14.4383 -14.1175 
-10.945 -7.609 -10.574 -12.2275 -8.4615 -13.8327 -15.0394 -18.878 -16.6268 
-1.934 -2.3615 -3.995 -2.9905 -1.7565 -4.126 -3.222 -4.6985 -4.4345 -1.7565 -8.7495 
-3.539 -5.9625 -7.685 -3.6185 -6.3205 -7.521001 -8.102 -10.001 -4.719 -10.5325 
-7.878 -9.699 -7.8815 -8.633501 -10.2235 -12.7016 -13.5111 -10.693 -13.613 
-11.5647 -9.769501 -13.5513 -12.7419 -15.5343 -18.1107 -14.2031 -19.9998 
-11.6352 -15.6341 -17.6597 -18.0527 -20.9434 -18.8027 -23.5099 
-2.3615 -5.101 -3.5015 -2.8645 -3.3715 -3.3755 -4.625 -2.9705 -2.8645 -4.9765 -4.153 -1.7565 -5.327 -6.142 
-7.6505 -8.066501 -6.312 -5.473001 -7.675 -8.923 -7.216 -4.6335 -8.0315 -6.9545 -5.717 -6.8135 -9.662001 
-10.316 -10.647 -8.793 -10.238 -13.4453 -12.1134 -8.912001 -9.726001 -10.2669 -8.4785 -10.2205 -11.971 
-12.8965 -13.128 -13.6042 -16.4469 -16.6357 -13.8094 -14.1435 -12.0386 -11.7909 -12.7676 -15.392 
-15.3775 -17.9392 -19.8131 -19.6373 -18.3317 -19.0409 -16.4561 -13.5626 -16.08 -18.4289 
-3.995 -4.6985 -4.153 -2.186 -4.554 -2.5045 -5.327 -6.142 
-7.5765 -7.9715 -5.824501 -5.002501 -5.7705 -8.0765 -9.662001 
-10.411 -9.338501 -8.558001 -6.2665 -10.526 -13.2305 
-11.778 -12.1996 -9.427001 -10.758 -15.7881 
-14.6391 -13.0686 -14.0139 -16.4813 
