-4.759 
n/a 
n/a 
n/a 
n/a 
-4.759 
n/a 
n/a 
n/a 
n/a 
-4.759 
n/a 
n/a 
n/a 
n/a 
-4.759 
n/a 
n/a 
n/a 
n/a 
-3.321 -1.934 -1.4985 -3.158 -4.748 -3.488 -3.281 -3.8735 -3.7555 -3.9675 
-5.4075 -2.6125 -4.178 -7.0495 -8.082001 -5.4445 -7.9015 -8.014501 -9.953501 
-6.0015 -5.265 -8.117001 -10.4855 -10.1185 -10.054 -12.4313 -14.4169 
-8.5675 -8.588 -11.783 -12.522 -14.8386 -14.7264 -18.8337 
-12.0715 -12.3944 -13.8195 -17.2421 -19.511 -21.1288 
-3.882 -1.934 -4.748 0 -2.264 -4.919 -3.488 -3.8735 -2.7415 -4.3215 -2.5045 -1.8085 -3.9675 -3.1715 0 
-5.1945 -6.061 -4.748 -2.264 -6.738501 -6.893 -8.7495 -6.64 -5.758 -6.389 -3.3625 -6.421 -7.915 -3.1715 
-8.802 -6.061 -7.682 -6.738501 -7.921 -10.553 -11.7632 -9.654 -7.098001 -7.372001 -7.802001 -9.504001 -7.915 
-8.802 -8.4385 -12.4741 -7.921 -11.7512 -13.5667 -14.7772 -10.676 -7.9045 -12.2243 -10.543 -9.504001 
-11.3273 -13.4604 -13.6566 -11.7512 -14.7649 -16.5807 -15.7992 -11.4825 -12.8772 -14.9653 -10.543 
-3.321 -1.934 -4.748 -3.488 -3.281 -3.8735 -4.3195 -3.9675 0 
-5.4075 -6.061 -8.082001 -5.4445 -7.9015 -7.817 -9.0555 -3.9675 
-8.814 -9.715001 -10.1185 -10.054 -12.2338 -10.259 -9.0555 
-12.6542 -12.1717 -14.8386 -14.5289 -14.6758 -10.259 
-15.1109 -16.8918 -19.3135 -16.9709 -14.6758 
-3.321 -1.934 -4.919 -3.488 -4.748 -3.8735 -3.7905 -1.8085 -3.9675 -3.59 
-5.4075 -7.789001 -6.893 -7.4715 -8.815001 -8.159 -4.255 -6.421 -7.609 
-11.7797 -9.989 -9.193501 -9.913 -13.4571 -8.5665 -8.026501 -9.852501 
-13.9797 -12.5345 -10.6605 -14.8087 -13.8646 -12.6762 -11.6266 
-16.5252 -14.0015 -15.5562 -15.2162 -17.9743 -16.2763 
