-4.759 
n/a 
n/a 
n/a 
n/a 
-4.759 
n/a 
n/a 
n/a 
n/a 
-4.759 
n/a 
n/a 
n/a 
n/a 
-4.759 
n/a 
n/a 
n/a 
n/a 
-4.613 0 -11.0905 0 -5.943501 0 
-4.613 -11.0905 -11.0905 -5.943501 -5.943501 
-16.1153 -11.0905 -17.034 -5.943501 
-16.1153 -17.034 -17.034 
-22.0588 -17.034 
-4.613 -12.16972 0 -5.943501 0 
-17.19452 -12.16972 -5.943501 -5.943501 
-17.19452 -18.11322 -5.943501 
-23.13802 -18.11322 
-23.13802 
-4.613 -11.0905 0 -5.9045 0 
-16.1153 -11.0905 -5.9045 -5.9045 
-16.1153 -16.995 -5.9045 
-22.0198 -16.995 
-22.0198 
-16.78272 0 -5.943501 0 
-17.19452 -5.943501 -5.943501 
-23.13802 -5.943501 
-23.13802 
n/a 
