-4.759 
n/a 
n/a 
n/a 
n/a 
-4.759 
n/a 
n/a 
n/a 
n/a 
-4.759 
n/a 
n/a 
n/a 
n/a 
-4.759 
n/a 
n/a 
n/a 
n/a 
-3.4765 -3.4775 -2.3335 -3.8845 -2.186 -3.9595 -3.456 -2.5045 -9.299001 -2.229 -4.076 -5.125 0 
-6.1575 -5.3995 -6.516001 -6.2345 -5.2155 -5.863 -5.940001 -11.142 -12.0294 -6.429 -8.096001 -5.125 
-8.064501 -9.579 -8.123001 -9.56 -6.968501 -9.3725 -15.3717 -13.8724 -16.2294 -11.0012 -8.096001 
-12.4244 -11.4588 -11.6899 -11.4204 -10.6735 -18.8342 -18.1021 -18.0724 -20.8016 -11.0012 
-14.3042 -15.0257 -13.5503 -15.1254 -20.1352 -21.5646 -22.3021 -22.6446 -20.8016 
-3.4765 -3.4775 -2.3335 -3.8845 -2.186 -3.9205 -2.3345 -9.299001 -3.8845 -2.5045 -3.091 -4.4925 
-6.1575 -5.3995 -6.516001 -6.2345 -4.9645 -5.811 -11.9641 -13.6849 -6.7355 -5.2025 -7.319 
-8.064501 -9.579 -8.123001 -8.8255 -6.7215 -16.4082 -16.35 -16.5359 -9.199501 -9.256001 
-12.4244 -11.4588 -10.9554 -11.0721 -17.5799 -20.7941 -19.201 -18.9999 -13.2956 
-14.3042 -14.2912 -13.202 -21.9305 -21.9658 -23.6451 -21.665 -23.096 
-3.4775 -3.074 -2.3335 -3.8845 -2.7415 -4.281 -3.2615 -3.595 -1.756 -5.111 0 
-6.7495 -5.6255 -6.516001 -6.726 -5.383 -5.6 -6.0585 -4.8 -6.804 -5.111 
-9.3915 -10.155 -8.2495 -8.9805 -6.502 -6.8235 -7.0195 -10.041 -6.804 
-13.9492 -11.8885 -10.9892 -9.911 -7.695001 -7.9885 -12.4213 -10.041 
-15.6827 -14.6282 -11.9197 -11.2444 -8.852501 -13.6585 -12.4213 
-3.1015 -2.3335 -2.186 -4.47 -2.5045 -6.920001 -3.8845 -4.4925 0 
-4.789 -3.7085 -5.459001 -6.3885 -9.473001 -8.715501 -8.410501 -4.4925 
-6.2035 -7.1235 -7.222001 -14.0264 -11.3849 -8.854501 -8.410501 
-10.2421 -8.9825 -15.1341 -15.9383 -11.5239 -8.854501 
-12.1011 -17.0822 -17.046 -16.0773 -11.5239 
