-4.759 
n/a 
n/a 
n/a 
n/a 
-4.759 
n/a 
n/a 
n/a 
n/a 
-4.759 
n/a 
n/a 
n/a 
n/a 
-4.759 
n/a 
n/a 
n/a 
n/a 
-3.5015 -1.7565 -3.7075 -1.934 -6.561501 
-4.783 -5.7275 -6.0775 -8.469001 
-9.1435 -7.926001 -13.2635 
-10.7575 -15.352 
-18.1835 
-3.5015 -1.7565 -1.4985 -3.7075 -1.934 -1.4985 -4.5605 -3.3755 
-4.783 -2.4195 -4.6235 -6.0775 -2.6125 -5.815001 -8.826 
-5.715 -5.468501 -6.389501 -6.692 -6.983 -9.375501 
-8.5845 -7.1105 -6.966001 -11.6563 -10.107 
-9.629001 -7.659 -12.0863 -14.7803 
-12.16972 -3.5015 -5.09 
-15.67122 -9.512001 
-21.68172 
n/a 
n/a 
-3.7075 -2.229 -3.8685 -1.934 -1.4985 -5.732 -3.3755 0 
-5.5255 -5.5085 -5.1635 -2.6125 -6.261001 -5.8985 -3.3755 
-7.860001 -6.509 -5.541 -7.082 -6.3015 -5.8985 
-8.4905 -6.818 -9.659 -7.11 -6.3015 
-8.6595 -10.1945 -9.664001 -7.11 
