-4.759 
n/a 
n/a 
n/a 
n/a 
-4.759 
n/a 
n/a 
n/a 
n/a 
-4.759 
n/a 
n/a 
n/a 
n/a 
-4.759 
n/a 
n/a 
n/a 
n/a 
-1.8085 -3.355 -1.7565 -1.8085 -3.308 -3.275 
-4.6195 -3.725 -3.2595 -4.9475 -5.0735 
-4.725 -4.75 -6.785 -5.833 
-5.986 -8.411 -7.567 
-9.567 -9.295001 
-2.871 -1.7565 -1.4985 -4.957 -1.7565 -1.4985 -3.16 -3.586 
-3.5385 -2.4195 -6.391001 -6.0415 -2.4195 -4.0625 -6.882 
-3.7675 -7.142001 -7.008 -6.505 -5.068501 -6.969 
-8.0275 -7.788501 -7.450001 -10.1505 -9.458501 
-8.4305 -8.182 -11.2779 -15.3293 
-1.8085 -3.355 -1.7565 -1.8085 -3.16 -2.9775 0 
-4.6195 -3.725 -3.2595 -4.6915 -4.6715 -2.9775 
-4.725 -4.75 -6.068 -5.6075 -4.6715 
-5.986 -7.512001 -6.777 -5.6075 
-8.574 -8.028001 -6.777 
-4.9 -3.4425 
-9.411 
n/a 
n/a 
n/a 
