-4.759 
n/a 
n/a 
n/a 
n/a 
-4.759 
n/a 
n/a 
n/a 
n/a 
-4.759 
n/a 
n/a 
n/a 
n/a 
-4.759 
n/a 
n/a 
n/a 
n/a 
-7.93 -3.8275 -1.756 -3.0835 -3.188 -3.8275 -3.43 -1.4985 -3.59 -2.5045 -3.6135 -4.0415 -3.9665 0 
-11.853 -5.1855 -5.3535 -5.7815 -4.801 -7.3415 -4.7635 -4.268 -5.8175 -5.81 -7.8715 -6.334 -3.9665 
-13.9914 -8.912001 -8.2425 -5.963 -8.839001 -8.4545 -7.6455 -6.1285 -8.431001 -10.718 -10.082 -6.334 
-18.2775 -9.785001 -8.908 -9.339001 -9.68 -10.6215 -10.259 -9.823501 -14.4414 -12.9285 -10.082 
-19.1505 -9.793501 -12.3256 -10.1075 -11.8926 -13.235 -13.9804 -14.9475 -16.6519 -12.9285 
-7.861001 -3.8275 -1.756 -1.4985 -3.0835 -3.188 -3.8275 -3.9875 -1.7695 -4.828 -3.8465 -1.756 -3.4155 -3.4625 0 
-11.5375 -5.1855 -3.0405 -3.535 -5.7815 -4.801 -8.3985 -4.6185 -7.08 -8.894 -5.257 -5.2205 -6.7955 -3.4625 
-14.0931 -6.0845 -5.3975 -6.070001 -5.963 -9.6815 -8.851 -10.304 -11.5622 -10.1555 -9.16 -8.8785 -6.7955 
-15.4711 -8.203 -7.662 -6.1905 -10.138 -10.153 -14.8009 -14.7862 -12.8237 -14.0585 -12.9008 -8.8785 
-17.5896 -8.996 -7.7445 -10.3955 -10.529 -16.1395 -19.2831 -16.0477 -16.7267 -17.7993 -12.9008 
-1.4985 -7.6875 -3.8275 -1.756 -1.4985 -3.0835 -3.188 -3.8275 -4.629 -1.4985 -3.59 -2.229 -4.0415 -3.9665 0 
-7.622 -9.2635 -5.1855 -3.0405 -3.535 -5.7815 -4.801 -8.851001 -5.827 -4.268 -4.966 -5.372 -6.334 -3.9665 
-7.002501 -7.8975 -6.0845 -5.3975 -6.070001 -5.963 -10.151 -9.291 -8.5325 -5.127 -7.373 -8.047501 -6.334 
-8.026501 -8.3655 -8.203 -7.662 -6.1905 -11.2084 -10.591 -12.3267 -8.573501 -7.561 -9.7685 -8.047501 
-8.4995 -10.2045 -8.996 -7.7445 -11.8707 -11.6484 -13.6267 -12.3677 -11.6341 -10.2585 -9.7685 
-1.4985 -7.861001 -3.8275 -1.756 -1.4985 -3.0835 -3.188 -3.8275 -5.3435 -1.4985 -3.7095 -1.7565 -1.4985 -3.59 -2.5045 -1.8085 -4.0415 -3.519 
-10.565 -11.5375 -5.1855 -3.0405 -3.535 -5.7815 -4.801 -9.2235 -6.3385 -4.89 -4.7465 -2.4195 -4.268 -5.8175 -3.3625 -5.514 -6.476 
-16.3734 -14.0931 -6.0845 -5.3975 -6.070001 -5.963 -11.181 -9.8815 -9.75 -5.0975 -5.369 -5.009 -6.1285 -6.446001 -6.722 -8.027 
-17.6104 -15.4711 -8.203 -7.662 -6.1905 -12.2384 -11.839 -13.5346 -9.7925 -5.7135 -8.0505 -6.880001 -6.6525 -9.257001 -8.497001 
-18.9884 -17.5896 -8.996 -7.7445 -12.9007 -12.8964 -15.4921 -13.5771 -10.432 -8.692 -9.668 -7.506001 -9.8255 -11.1886 
