-4.759 
n/a 
n/a 
n/a 
n/a 
-4.759 
n/a 
n/a 
n/a 
n/a 
-4.759 
n/a 
n/a 
n/a 
n/a 
-4.759 
n/a 
n/a 
n/a 
n/a 
-2.9805 -5.8285 -7.982501 -4.0965 -1.756 -4.9385 0 
-7.664001 -14.866 -9.686001 -5.706 -6.501 -4.9385 
-16.8943 -16.5695 -11.6403 -10.6465 -6.501 
-18.5978 -18.5238 -16.5808 -10.6465 
-20.5521 -23.4643 -16.5808 
-3.074 -2.9805 -9.862 -8.045501 
-6.274 -14.2449 -18.0763 
-17.8218 -22.4592 
-26.0361 
n/a 
-3.321 -3.973 -12.16972 -2.229 -3.468 0 
-7.522 -17.15912 -14.39872 -6.150001 -3.468 
-21.17512 -19.38812 -18.31972 -6.150001 
-23.40412 -23.30912 -18.31972 
-27.32512 -23.30912 
-2.9805 -5.8285 -7.982501 -3.59 -1.756 -4.9385 -2.4265 0 
-7.664001 -14.866 -10.361 -5.017 -6.501 -7.111001 -2.4265 
-16.8943 -17.2445 -11.788 -9.6125 -8.2145 -7.111001 
-19.2728 -18.6715 -16.3835 -11.3648 -8.2145 
-20.6998 -23.267 -18.1358 -11.3648 
