-4.759 
n/a 
n/a 
n/a 
n/a 
-4.759 
n/a 
n/a 
n/a 
n/a 
-4.759 
n/a 
n/a 
n/a 
n/a 
-4.759 
n/a 
n/a 
n/a 
n/a 
-1.4985 -3.519 -1.7565 -3.5435 -4.066 -2.9905 -2.5195 -4.432 -4.328 -1.756 -4.373 
-4.426001 -4.6225 -4.913 -7.487 -5.3895 -5.134 -7.0125 -4.899 -5.789 -6.0775 
-4.847001 -7.2935 -8.8915 -8.935 -7.448 -9.660501 -7.5015 -6.1825 -8.4945 
-7.468 -9.821501 -10.6735 -11.5375 -12.3951 -10.6775 -9.8145 -9.218 
-9.878 -12.2555 -14.0708 -16.4846 -13.4121 -12.9905 -12.9234 
-3.9655 -3.519 -4.8165 -2.3345 -4.432 -4.328 -1.756 -7.5665 -1.7565 -5.0075 0 
-6.106 -8.9525 -6.311 -6.613501 -4.899 -5.789 -9.2685 -8.612 -5.9065 -5.0075 
-12.4259 -10.004 -9.6715 -6.8285 -6.1825 -14.2957 -10.048 -10.1 -5.9065 
-13.4774 -13.5403 -9.7185 -8.785501 -15.0736 -15.0752 -11.8072 -10.1 
-17.0137 -13.5873 -11.8545 -17.9308 -15.8531 -16.8344 -11.8072 
-3.5435 -5.8525 -3.519 -2.7415 -4.3775 -2.3345 -1.4985 -4.432 -4.328 -1.756 -4.7485 -5.0075 0 
-9.787001 -10.382 -6.2355 -6.018001 -5.334 -3.233 -5.268001 -4.899 -5.789 -6.419 -6.7285 -5.0075 
-14.5245 -13.0985 -9.120501 -6.9205 -6.2545 -6.5465 -5.504 -6.1825 -7.2695 -8.1745 -6.7285 
-17.241 -15.9835 -10.119 -7.7735 -9.2045 -6.62 -6.579 -7.3 -9.142 -8.1745 
-20.126 -16.982 -10.7665 -10.2585 -9.2985 -7.5635 -7.523001 -9.148001 -9.142 
-3.5435 -3.864 -4.0735 -2.186 -4.8645 -2.3345 -4.432 -4.328 -1.756 -1.4985 -4.698 0 
-8.081 -9.1225 -5.8275 -5.8205 -5.761 -6.613501 -4.899 -5.789 -3.0405 -5.740001 -4.698 
-13.8617 -10.9849 -9.699 -6.919001 -10.4185 -6.8285 -6.1825 -6.612 -7.235 -5.740001 
-15.7241 -14.8564 -10.6 -11.7845 -10.6335 -8.785501 -7.03 -9.147 -7.235 
-19.5956 -15.7574 -15.4655 -11.9995 -12.5905 -10.66 -9.406501 -9.147 
