-4.759 
n/a 
n/a 
n/a 
n/a 
-4.759 
n/a 
n/a 
n/a 
n/a 
-4.759 
n/a 
n/a 
n/a 
n/a 
-4.759 
n/a 
n/a 
n/a 
n/a 
-3.3715 -3.793 -4.1965 -5.2015 -3.7015 -1.4985 -3.6605 -4.7425 -5.0965 -3.8755 -4.1985 -1.7695 -4.2065 -1.4985 -4.824 -2.925 -4.37 -1.4985 -5.01 -1.7565 -5.127 -4.5355 -1.934 -3.948 -3.638 -1.756 -4.174 -4.77 -1.7695 -4.2065 -1.4985 -5.127 -4.824 
-8.324 -8.6185 -10.155 -7.0905 -4.3435 -4.6365 -4.8735 -9.923 -7.979501 -7.4095 -4.901 -4.563 -4.732 -5.96 -8.606001 -6.479 -5.794001 -6.577001 -5.9635 -6.071001 -5.946001 -6.026 -5.024 -7.329 -4.84 -5.474 -9.348001 -6.265 -4.563 -4.732 -6.5045 -6.943501 
-13.5281 -14.8296 -12.044 -7.759501 -7.653 -6.350501 -10.051 -12.806 -11.9851 -8.7915 -6.7675 -5.081501 -7.8405 -10.064 -12.2912 -7.7335 -11.2375 -7.514501 -10.096 -6.952001 -7.382 -9.123 -8.544001 -8.750501 -8.651 -10.2535 -10.16 -8.753501 -5.081501 -8.1975 -8.0905 
-19.7392 -16.7186 -12.713 -11.334 -8.777 -12.3538 -12.934 -16.8116 -13.3671 -10.3105 -7.357501 -8.0725 -12.9807 -13.7346 -13.5457 -13.2688 -12.175 -11.833 -10.592 -8.163501 -10.7938 -12.823 -9.760501 -12.8195 -13.5567 -11.0655 -12.7247 -9.165001 -8.487 -9.1915 
-21.6282 -17.3876 -16.2875 -12.458 -14.9821 -15.2368 -16.9396 -18.1936 -14.8861 -10.9005 -9.8085 -13.2827 -16.6513 -14.9891 -19.081 -14.2063 -16.4935 -12.329 -11.8035 -11.8913 -14.4938 -14.0395 -13.9089 -17.7252 -14.3687 -13.6302 -13.1362 -12.6653 -9.5425 
-4.6985 -3.2295 -2.985 -4.383 -5.43 -3.17 -2.674 -2.664 -3.992 -2.264 -3.8105 -1.4985 -3.995 -2.186 -4.515 -4.7425 -3.2295 -2.95 -3.147 0 -2.664 -4.5985 -1.7565 -3.849 -4.6525 -5.127 -1.7565 -1.4985 -3.634 -2.186 -3.7855 -3.0415 -2.3585 -2.7765 -3.2345 -2.925 -2.5235 -4.0335 0 
-7.439 -5.539001 -7.254 -6.717501 -9.043 -6.092 -4.343 -5.4935 -5.482 -5.2885 -4.5835 -4.712 -5.7465 -5.417 -9.4825 -7.403 -4.904 -5.838 -3.147 -2.664 -5.686 -5.2375 -5.0295 -7.975 -10.8625 -8.085001 -2.4195 -4.6385 -5.197 -4.9225 -6.752 -4.41 -3.3835 -4.7005 -4.836 -4.86 -5.169001 -4.0335 
-9.9665 -9.3715 -9.0535 -10.0315 -12.1824 -8.2005 -6.189 -6.204 -7.275001 -5.896 -8.036 -6.1195 -8.817 -9.896501 -12.2908 -9.3245 -8.019501 -5.838 -6.2495 -5.686 -5.873 -8.0885 -9.673 -14.4812 -13.8205 -8.884501 -5.824 -5.7755 -8.503 -7.8655 -8.4995 -4.8915 -5.243 -6.725 -6.414001 -6.606501 -5.169001 
-14.0202 -10.486 -12.5401 -13.2899 -14.2909 -10.238 -6.7975 -7.7365 -7.8175 -9.370501 -8.54 -9.383 -10.543 -12.8166 -14.2123 -12.5352 -8.019501 -9.185 -9.182 -5.873 -8.6415 -12.9306 -16.2576 -17.4392 -14.62 -12.5068 -7.2145 -9.2085 -11.5 -9.2235 -8.942 -6.476501 -7.256 -7.795501 -6.7785 -6.606501 
-15.1347 -13.9726 -15.7985 -15.3984 -16.3284 -10.8465 -8.4375 -8.1825 -11.536 -9.6415 -12.2927 -10.5755 -13.4631 -14.7381 -17.423 -12.5352 -12.1019 -12.2131 -9.251 -8.6415 -13.5426 -19.5152 -19.2156 -18.2387 -18.2423 -13.8973 -10.004 -12.1249 -12.858 -9.6595 -10.348 -8.512 -7.826 -8.627501 -6.7785 
-7.263 -2.229 -4.0295 -1.7565 -3.9355 -2.7415 -2.688 -1.756 -4.621 -1.8085 -4.076 -4.461 -2.3335 -1.4985 -4.113 -2.7415 -4.7425 0 -4.3755 -1.4985 -6.193501 -3.2955 -2.3345 -4.6195 -2.7415 0 -6.135 -4.113 -4.56 0 0 -3.433 -3.4985 -2.4265 -2.7415 -4.5385 -4.7855 -3.423 -3.4625 -1.4985 -4.113 0 -2.847 -2.871 -2.7415 -3.7725 -2.9705 -4.295 -2.4265 -2.7415 -3.6515 0 -4.388 0 -1.4985 -3.4075 -4.2875 -1.7565 -4.1595 -3.0835 -3.2955 -3.6605 -4.7425 -1.934 -1.8085 -4.566 -3.7425 -3.849 -1.4985 -6.6845 -3.277 0 -2.4265 -3.264 0 0 -2.7835 -4.3685 -5.1585 -4.416 -1.7695 -3.922 0 0 -2.7295 -3.197 0 -2.847 -4.031 -1.7695 -4.5815 -2.3335 -4.113 -3.6615 -2.742 -3.777 -1.756 -2.847 -4.031 -1.7695 -3.9765 -2.3335 -3.1495 -3.6615 -2.742 -2.489 -5.7155 0 0 -4.4955 0 -1.4985 -3.277 -3.43 -1.8085 -5.069 -3.458 -4.9725 -1.7695 -4.1455 -4.2485 -3.6615 -2.5045 -3.6605 -4.7425 0 -3.4985 -4.9725 -1.7695 -2.8965 -3.6615 -4.413 -2.3345 -4.157 -5.127 -2.5045 -4.113 -3.4625 -2.3615 -5.069 -2.186 -3.5725 -3.908 -3.2955 -1.934 -3.5855 -3.724 0 -2.356 -3.6605 -4.7425 -4.3955 -4.1455 -4.8285 0 -1.756 -4.113 -3.4625 -4.3955 -2.8965 -3.6615 0 -4.157 -5.1515 0 -3.843 0 
-8.767501 -5.066 -4.8465 -5.442 -7.021501 -6.185 -4.759501 -6.402 -6.087501 -4.7005 -7.957001 -6.057001 -3.3515 -5.425 -7.184501 -7.5345 -4.7425 -4.3755 -6.0855 -7.189 -8.778501 -4.534 -6.3605 -7.6955 -2.7415 -6.135 -9.322001 -8.321501 -4.56 0 -3.433 -6.521501 -5.104 -3.681 -5.999001 -10.0475 -7.2445 -5.907001 -4.474 -5.425 -4.113 -2.847 -4.4675 -5.3315 -6.161 -6.146501 -6.5905 -6.4055 -3.681 -4.9355 -3.6515 -4.388 -4.388 -1.4985 -4.118 -5.5205 -4.8415 -5.417 -7.802 -6.145 -7.8815 -4.8735 -6.601 -3.2685 -6.809 -8.3525 -7.268 -4.7705 -8.673 -8.8885 -3.277 -2.4265 -5.531 -3.264 0 -2.7835 -7.5785 -5.3085 -8.997001 -4.687 -4.5985 -3.922 0 -2.7295 -5.164001 -3.197 -2.847 -5.2445 -5.006 -6.269001 -5.352 -6.427 -6.06 -5.8285 -5.2625 -6.051001 -4.6065 -5.2445 -5.006 -4.9295 -4.531 -4.8015 -5.455 -5.8285 -3.301 -6.815001 -5.7155 0 -4.4955 -4.4955 -1.4985 -4.64 -6.8415 -4.6595 -6.0205 -5.575 -8.5915 -5.1235 -6.093501 -6.0765 -6.466001 -5.9735 -6.2035 -4.8735 -4.7425 -3.4985 -7.599501 -5.1235 -4.497 -5.974 -7.0725 -4.6955 -6.363501 -7.6695 -7.4165 -6.6105 -4.488501 -5.5055 -6.2925 -6.2895 -4.471 -6.739 -5.5225 -4.2285 -5.251 -7.059 -3.724 -2.356 -5.9705 -4.8735 -9.3855 -9.5005 -6.2795 -4.8285 -1.756 -5.418 -4.488501 -7.9035 -7.694 -5.974 -3.6615 -4.157 -8.92 -5.1515 -3.843 -3.843 
-11.8537 -6.416 -6.7625 -7.987 -10.5325 -7.116001 -10.119 -7.585501 -7.548501 -8.835501 -9.501501 -6.8135 -7.0675 -7.575 -9.387501 -7.5345 -9.6245 -6.0855 -11.9442 -9.0425 -9.4505 -7.597 -9.259501 -7.6955 -7.828 -9.322001 -9.3925 -8.321501 -4.56 -3.433 -6.521501 -7.5785 -6.206 -7.029 -12.7856 -12.7125 -9.781 -6.5 -7.509 -5.425 -7.8785 -4.4675 -6.028 -8.0145 -9.336 -8.394001 -7.9065 -7.505 -5.998 -4.9355 -9.711 -4.388 -6.7325 -4.118 -5.878 -5.6 -5.462 -8.7615 -11.4093 -11.2146 -9.398001 -6.815001 -7.884001 -8.119 -9.59 -12.0222 -7.861 -10.5865 -9.536501 -8.8885 -5.307 -5.531 -5.531 -3.264 -2.7835 -7.5785 -8.169001 -9.035501 -9.0565 -6.581 -4.5985 -3.922 -2.7295 -5.164001 -5.164001 -6.0625 -5.2445 -5.628 -6.8085 -6.997001 -8.6125 -8.355 -8.335501 -7.8785 -8.016001 -8.470501 -7.503 -5.628 -5.8515 -5.3135 -6.496 -6.901501 -6.5705 -6.2275 -7.676 -6.815001 -5.7155 -4.4955 -4.4955 -6.8545 -4.64 -7.5725 -8.194 -7.6515 -6.345 -10.0345 -9.1455 -9.636001 -8.6835 -8.304501 -8.433001 -9.8915 -7.1165 -4.8735 -7.5985 -7.599501 -7.708 -7.6825 -7.9795 -9.540001 -7.12 -7.46 -9.345501 -10.348 -10.434 -6.818501 -6.9375 -9.836 -6.932 -8.8155 -6.8835 -8.538501 -6.223001 -7.776 -9.2875 -7.059 -6.2325 -5.9705 -6.927001 -9.654001 -14.8305 -11.6781 -6.2795 -5.9385 -5.418 -5.726 -9.411501 -11.3668 -11.3631 -5.974 -7.7335 -8.92 -8.92 -8.092501 -3.843 
-13.2037 -7.926001 -8.5105 -11.5706 -11.4635 -10.7495 -10.7665 -8.910501 -12.0683 -9.991501 -10.245 -9.675501 -8.537001 -9.547001 -9.387501 -13.5113 -11.3747 -11.9442 -13.7977 -9.8655 -12.6739 -10.7714 -9.259501 -12.989 -11.6632 -9.3925 -9.3925 -8.321501 -7.958001 -6.521501 -7.5785 -8.7445 -8.9425 -14.2322 -15.4506 -15.249 -10.301 -9.3625 -7.509 -9.113501 -8.823501 -6.028 -8.0885 -9.799 -11.6529 -9.6815 -8.988501 -8.7815 -5.998 -11.9446 -9.711 -6.7325 -9.3555 -5.878 -5.9005 -5.761001 -8.782001 -12.87 -16.4789 -12.7311 -11.6339 -8.006001 -13.0983 -9.901 -13.4545 -12.6152 -13.8522 -11.45 -9.536501 -11.4113 -8.3205 -5.531 -5.531 -5.535 -7.5785 -8.169001 -9.6405 -9.087501 -9.590501 -6.581 -4.5985 -6.999001 -5.164001 -5.164001 -6.816 -7.784 -5.628 -7.072001 -7.3305 -9.797001 -9.734 -9.3955 -9.750001 -9.940001 -9.685501 -9.834001 -7.824 -6.5565 -6.087 -7.3585 -8.370501 -7.581501 -7.0235 -9.629001 -7.676 -6.815001 -10.335 -4.4955 -6.8545 -9.8295 -7.5725 -8.614 -10.1765 -7.721 -10.6735 -10.394 -13.7754 -12.3974 -9.961501 -9.9975 -12.614 -10.3995 -7.1165 -7.695001 -11.9745 -7.708 -10.041 -11.3916 -11.9451 -9.741501 -9.736501 -9.737 -12.0202 -13.3655 -10.642 -9.069501 -12.0296 -10.3135 -9.5695 -11.469 -8.756001 -9.2215 -9.2705 -12.1955 -9.2875 -10.2865 -9.836 -6.927001 -12.1245 -15.1484 -17.0081 -11.6781 -7.681 -8.7005 -5.726 -11.0684 -13.161 -15.0359 -11.3631 -9.591001 -12.6403 -8.92 -12.1162 -8.092501 
-14.7137 -9.2305 -12.3159 -12.5016 -15.097 -11.397 -12.0915 -13.5131 -13.2243 -10.8372 -13.107 -11.5204 -10.1505 -9.547001 -15.3125 -15.2615 -17.2334 -13.7977 -14.6207 -13.1993 -15.8483 -10.7714 -14.6842 -16.8242 -11.7337 -9.3925 -9.3925 -11.9497 -11.1499 -7.5785 -8.7445 -11.5822 -16.6951 -16.8972 -17.9871 -15.769 -10.746 -9.3625 -11.5307 -10.089 -10.7778 -8.0885 -9.802 -12.1493 -12.9404 -10.47 -9.818001 -8.7815 -13.2347 -11.9446 -12.1673 -9.3555 -11.3323 -5.9005 -6.061 -9.554001 -12.9337 -17.9396 -17.9954 -14.967 -12.8249 -13.3489 -14.8803 -13.8001 -14.0475 -18.6064 -14.7157 -11.45 -12.1567 -14.4248 -8.3205 -5.531 -7.9335 -10.1145 -8.169001 -9.6405 -9.6425 -9.592001 -9.590501 -6.581 -7.842501 -9.293 -5.164001 -6.816 -8.357 -8.012501 -7.072001 -7.5465 -9.837 -9.983001 -9.989 -9.866 -9.9975 -9.993001 -9.852501 -9.8435 -8.776 -6.761 -8.094501 -9.5085 -8.861 -8.524 -9.8175 -9.629001 -7.676 -11.8751 -10.335 -6.8545 -9.8295 -12.7908 -8.614 -10.688 -10.1885 -12.1091 -11.033 -15.0239 -16.5368 -13.6754 -11.6545 -14.3873 -13.122 -10.3995 -10.1505 -12.0934 -12.083 -10.041 -13.7501 -15.3572 -12.1466 -12.4078 -12.0411 -12.4511 -15.0377 -13.5735 -12.893 -14.3536 -12.5071 -12.951 -12.244 -13.3415 -9.3955 -12.442 -13.902 -12.1955 -12.8854 -13.89 -11.1607 -12.1245 -17.6189 -17.326 -17.0081 -13.0796 -10.13 -9.324 -11.0684 -14.8179 -16.8301 -15.0359 -14.9801 -14.7912 -12.6403 -12.1162 -12.1162 
-3.17 -7.0625 -4.088 -3.2955 -1.7695 -4.7075 -1.4985 -5.127 -4.7265 -3.4095 
-11.7455 -11.6805 -7.853001 -3.9425 -5.65 -5.6415 -6.5045 -10.4855 -8.9215 
-16.3635 -15.4455 -8.699 -7.461 -6.1495 -9.602501 -12.3268 -14.6805 
-20.1285 -16.2915 -12.5117 -7.8125 -9.991501 -15.6004 -16.5218 
-20.9745 -20.1042 -12.8632 -11.8291 -16.0448 -19.7954 
