-4.759 
n/a 
n/a 
n/a 
n/a 
-4.759 
n/a 
n/a 
n/a 
n/a 
-4.759 
n/a 
n/a 
n/a 
n/a 
-4.759 
n/a 
n/a 
n/a 
n/a 
-1.934 -5.5325 -7.0385 -4.126 -1.934 -3.3635 -1.7695 -3.6845 -2.0935 -4.598 
-8.210501 -13.4156 -11.8507 -5.647 -4.921 -5.689 -4.2695 -6.617001 -6.2965 
-16.3216 -18.2278 -13.3717 -8.653501 -6.434 -8.4825 -7.274 -11.416 
-21.1338 -19.7488 -16.3782 -10.523 -8.906 -11.5256 -12.5264 
-22.6548 -22.7553 -18.2477 -12.995 -11.9777 -16.778 
-6.5005 -7.0385 -3.1715 -3.3635 -2.186 -3.9595 -2.5045 -4.8975 -3.4775 
-14.1878 -10.8962 -7.291501 -6.286 -5.2155 -5.597 -7.450001 -7.6835 
-18.0455 -15.0162 -10.553 -9.123501 -6.548501 -10.553 -10.3545 
-22.1655 -18.2777 -13.3905 -10.1425 -11.8681 -13.4575 
-25.427 -21.1152 -14.4095 -15.7381 -14.7726 
-6.5005 -7.0385 -3.3635 -4.184 -3.158 -4.2315 -6.612 
-14.1878 -11.0882 -8.1075 -6.6165 -5.672 -9.554001 
-18.2375 -15.8322 -10.9724 -9.4617 -13.4725 
-22.9815 -18.6971 -13.8176 -17.2622 
-25.8464 -21.5423 -21.6181 
-3.723 -1.7695 -4.126 -1.7565 -3.3635 -5.0285 -1.7695 -3.4775 -4.2815 0 
-6.0275 -6.099 -5.221001 -5.5755 -8.331 -7.1995 -5.7745 -7.2165 -4.2815 
-10.1385 -8.27 -10.2385 -10.9394 -11.0938 -11.6141 -9.774 -7.2165 
-12.4193 -13.4379 -15.6024 -13.7022 -15.5084 -15.6136 -9.774 
-17.5872 -18.8018 -18.3652 -18.1168 -19.5079 -15.6136 
