-4.759 
n/a 
n/a 
n/a 
n/a 
-4.759 
n/a 
n/a 
n/a 
n/a 
-4.759 
n/a 
n/a 
n/a 
n/a 
-4.759 
n/a 
n/a 
n/a 
n/a 
-3.688 -8.5465 -2.186 -1.4985 -3.0835 -3.688 -2.9195 -3.7425 -4.0925 -3.034 -3.8735 -4.319 -2.229 -2.0935 -4.248 0 
-8.748001 -10.5975 -3.339 -3.535 -7.4905 -4.903 -6.618 -7.4355 -6.5725 -7.377001 -8.6475 -7.482 -4.9355 -5.816 -4.248 
-10.6215 -11.7505 -4.8925 -7.839001 -9.278501 -8.0515 -10.785 -10.6641 -11.3663 -12.9542 -12.3119 -9.673 -9.0395 -5.816 
-11.7745 -13.304 -9.261001 -9.668501 -10.7605 -12.6329 -14.0136 -15.4579 -16.9435 -16.6186 -14.5029 -13.8772 -9.0395 
-13.328 -17.6725 -10.4515 -11.2891 -15.3419 -15.8615 -18.8074 -21.0351 -20.6079 -18.8096 -18.7071 -13.8772 
-1.4985 -3.0835 -3.688 -4.378 -2.3335 -4.331 -1.7695 -4.617 -1.934 -3.502 -3.8735 -3.5455 -1.4985 -4.1865 -4.248 -4.866 -2.7415 -1.4985 -3.688 -5.0155 0 0 
-3.535 -7.4905 -5.9475 -6.4945 -5.9125 -4.925 -5.0525 -5.591 -4.8155 -6.2275 -7.1095 -3.91 -5.177 -8.061501 -7.309 -7.1765 -4.063 -4.6515 -5.84 -5.0155 0 
-7.839001 -8.549 -8.193501 -9.484501 -7.186501 -7.838 -6.068 -8.5795 -6.9265 -9.05 -7.4215 -7.798501 -8.627501 -8.673 -9.199 -8.448501 -7.966001 -6.003 -5.84 -5.0155 
-8.9265 -11.278 -10.564 -10.9817 -9.9455 -8.4945 -9.001 -11.0211 -9.353001 -9.283501 -9.533 -9.791501 -8.956 -10.5035 -10.435 -12.3869 -9.335501 -6.003 -5.84 
-11.9989 -13.6485 -12.3506 -13.7407 -10.2475 -11.4787 -11.5714 -13.4476 -9.5795 -11.4848 -12.0944 -9.930501 -10.6735 -11.7395 -14.3734 -13.7564 -9.335501 -6.003 
-3.5455 -1.4985 -4.712 -4.866 -1.934 -3.8735 0 0 -12.16972 0 -2.7415 -1.4985 -3.0835 -3.688 -2.9195 -3.7425 -1.934 -3.502 -3.8735 0 
-3.91 -5.918 -7.8745 -6.3475 -4.885 -3.8735 0 -12.16972 -12.16972 -2.7415 -4.063 -3.535 -7.4905 -4.903 -6.618 -5.7275 -4.8155 -6.2275 -3.8735 
-8.245501 -8.259001 -8.936001 -8.318001 -4.885 -3.8735 -12.16972 -12.16972 -14.91122 -4.063 -5.12 -7.839001 -9.278501 -8.0515 -8.250501 -9.1285 -6.9265 -6.2275 
-9.149501 -9.177001 -10.3615 -8.318001 -4.885 -17.03522 -12.16972 -14.91122 -16.23272 -5.12 -9.316501 -9.668501 -10.7605 -9.666 -11.8111 -11.4415 -6.9265 
-10.3545 -10.523 -10.3615 -8.318001 -18.81852 -17.03522 -14.91122 -16.23272 -17.28972 -9.316501 -11.2008 -11.2891 -12.375 -13.2176 -14.1241 -11.4415 
-9.4425 -2.186 -1.4985 -3.0835 -2.9195 -3.7425 -3.9535 -1.934 -3.502 -3.8735 -3.5455 -4.712 
-11.7375 -3.339 -3.535 -6.74 -6.618 -8.113501 -5.3325 -4.8155 -6.2275 -7.1095 -8.501501 
-12.8905 -4.8925 -7.475 -9.598001 -10.543 -8.8155 -8.351501 -6.9265 -9.05 -10.6735 
-14.444 -8.6035 -9.818001 -13.708 -11.245 -12.2637 -10.5135 -9.353001 -12.7196 
-18.155 -11.2481 -13.981 -14.41 -14.6932 -14.4257 -12.94 -13.0328 
