-4.759 
n/a 
n/a 
n/a 
n/a 
-4.759 
n/a 
n/a 
n/a 
n/a 
-4.759 
n/a 
n/a 
n/a 
n/a 
-4.759 
n/a 
n/a 
n/a 
n/a 
-3.098 -2.674 -1.8085 -4.3225 -2.186 -3.8825 -1.7695 -4.571 
-6.966001 -3.63 -5.9135 -6.514501 -5.2765 -4.5575 -7.697001 
-7.87 -8.011 -7.8465 -9.3505 -5.3695 -10.2225 
-12.7378 -10.0642 -10.7175 -9.387001 -11.3515 
-14.791 -12.9352 -10.754 -15.9624 
-12.16972 -2.3335 -3.098 -3.135 -8.476501 -3.818 -1.7565 -4.571 -2.229 
-14.50322 -5.889 -6.6735 -12.8425 -12.7731 -5.8275 -7.238501 -7.635 
-18.05872 -9.0185 -16.7616 -17.1391 -14.7826 -11.6609 -9.792001 
-21.18822 -19.1892 -21.0582 -19.1486 -20.616 -14.2144 
-31.35892 -23.4858 -23.0677 -24.982 -23.1695 
-3.098 -1.7565 -3.135 -5.232 -2.4945 -3.642 -6.0325 -3.681 
-4.3615 -4.6765 -8.147501 -7.250501 -5.271501 -9.595 -8.917 
-7.395 -10.0605 -9.631001 -10.051 -11.8277 -12.5703 
-13.0098 -11.544 -12.4377 -16.7634 -14.803 
-14.4933 -14.3507 -19.1501 -19.7387 
-3.135 -2.4945 -3.325 -1.4985 -3.098 -1.7565 -4.3225 -1.756 -2.4945 -3.8825 -1.7695 -5.9325 0 
-5.297501 -5.3365 -3.898 -4.3095 -4.3615 -7.173 -5.8665 -4.2725 -5.5245 -4.5575 -8.31 -5.9325 
-8.307 -6.087 -5.9125 -4.5915 -9.5765 -8.6775 -9.151501 -7.509001 -5.799 -10.5125 -8.31 
-8.788 -9.062 -6.3175 -10.4505 -11.223 -11.9355 -12.4672 -7.664001 -12.1026 -10.5125 
-12.1526 -9.374001 -11.6133 -12.097 -14.481 -15.2512 -12.6222 -14.0028 -12.1026 
