-4.759 
n/a 
n/a 
n/a 
n/a 
-4.759 
n/a 
n/a 
n/a 
n/a 
-4.759 
n/a 
n/a 
n/a 
n/a 
-4.759 
n/a 
n/a 
n/a 
n/a 
-7.1975 -2.356 -4.248 -4.891 -3.9075 -8.103001 
-10.5435 -6.7115 -10.533 -7.106501 -10.113 
-14.899 -13.4735 -12.7485 -15.5192 
-21.661 -15.689 -21.1612 
-23.8765 -24.1017 
-12.16972 -5.001 -5.211 -4.2965 -12.0385 
-17.17072 -11.7556 -9.589001 -14.5575 
-23.92532 -16.1336 -20.5486 
-28.30332 -27.0932 
-39.26292 
-13.3415 -4.241 -4.431 -8.103001 
-13.136 -6.247 -11.0635 
-14.7866 -13.6871 
-22.2267 
n/a 
-7.1975 -1.756 -4.248 -4.891 -3.794 -3.894 0 -4.1045 0 -3.9985 
-9.093 -5.7 -10.533 -9.023001 -7.2305 -3.894 -4.1045 -4.1045 -3.9985 
-13.1592 -12.4462 -14.665 -13.1105 -7.2305 -8.955001 -4.1045 -5.451 
-19.9054 -16.5782 -18.7525 -13.1105 -12.7523 -8.955001 -5.451 
-24.0374 -20.6657 -18.7525 -18.6323 -12.7523 -10.3979 
