-4.759 
n/a 
n/a 
n/a 
n/a 
-4.759 
n/a 
n/a 
n/a 
n/a 
-4.759 
n/a 
n/a 
n/a 
n/a 
-4.759 
n/a 
n/a 
n/a 
n/a 
-2.847 -10.161 
-13.6148 
n/a 
n/a 
n/a 

n/a 
n/a 
n/a 
n/a 
-3.4945 -2.9995 -7.225 -3.6885 -4.416 0 -3.8275 -3.693 -3.9535 -5.1845 -6.844 -2.742 -3.3165 -3.539 
-4.9185 -11.46 -9.198 -7.022 -4.416 -3.8275 -7.3325 -7.461 -10.382 -6.9655 -9.212501 -5.001 -5.3575 
-13.8992 -11.918 -10.207 -7.022 -8.403001 -7.3325 -11.3223 -14.2617 -12.163 -9.334001 -11.6657 -6.3855 
-14.2882 -15.2619 -10.3604 -11.4964 -12.8064 -11.3223 -18.123 -16.0427 -14.5315 -11.864 -13.0502 
-17.6321 -15.2619 -15.475 -15.8998 -16.7962 -18.123 -19.904 -18.4112 -17.0615 -13.2485 
-2.7835 -3.0365 -2.186 -2.847 -5.6955 -4.6985 -1.7565 -1.934 -4.7895 -2.4285 -4.4665 -2.688 -3.8275 0 -5.1845 -6.262 -2.8645 -1.7695 -3.946 -3.6065 -6.9725 
-4.4665 -3.66 -4.1045 -8.693501 -7.722 -5.2895 -5.223001 -6.4165 -7.0725 -7.3865 -7.0755 -6.7695 -3.8275 -5.1845 -8.6805 -8.4395 -4.4755 -4.9815 -7.3865 -11.7508 
-4.811501 -4.256001 -9.797501 -10.609 -8.841001 -8.518001 -10.041 -8.506001 -12.5301 -10.2135 -10.3415 -6.7695 -9.145 -8.6805 -11.2992 -10.2815 -7.101 -8.511001 -16.1498 
-5.5375 -9.866501 -11.7592 -11.728 -12.1231 -14.1394 -12.2805 -14.177 -15.3571 -13.6213 -10.3415 -12.6588 -12.9124 -11.2992 -13.1412 -13.0536 -9.882501 -17.3945 
-10.6735 -11.836 -12.8782 -15.0101 -17.7445 -16.3789 -17.9515 -17.004 -18.7649 -13.6213 -16.9218 -16.4262 -15.5311 -13.1412 -15.9133 -15.8351 -18.766 
