-4.759 
n/a 
n/a 
n/a 
n/a 
-4.759 
n/a 
n/a 
n/a 
n/a 
-4.759 
n/a 
n/a 
n/a 
n/a 
-4.759 
n/a 
n/a 
n/a 
n/a 
-2.3615 -4.336 -12.16972 -3.046 
-6.9855 -17.45352 -15.21572 
-20.69122 -20.49952 
-23.73722 
n/a 
-2.3615 -2.186 -3.115 -4.1685 -3.684 -5.367 -3.9615 -2.664 -4.5155 -3.9965 
-3.5005 -4.989 -6.732 -8.786501 -8.817 -8.9255 -6.298 -8.488501 -8.3055 
-6.2995 -7.586 -11.9414 -14.3353 -12.8329 -11.6674 -13.0215 -12.4855 
-8.7485 -13.058 -17.4902 -18.3512 -15.5748 -18.3909 -17.0185 
-14.4217 -18.6068 -21.5061 -21.0931 -22.2983 -22.3879 
-2.4265 -4.336 -6.2785 -3.9965 -3.9615 -4.3465 -3.046 -6.4975 0 
-7.2085 -11.5623 -11.117 -7.289001 -9.1075 -7.722501 -11.1355 -6.4975 
-15.015 -16.4008 -14.4095 -13.0456 -12.7435 -16.2762 -11.1355 
-19.8535 -19.6933 -20.1661 -16.6816 -21.2972 -16.2762 
-23.146 -25.4499 -23.8021 -25.2353 -21.2972 
-2.3615 -2.186 -3.115 -2.5045 -3.046 -4.043 -1.7565 -3.684 -4.3685 -3.9615 -1.8085 -4.336 -4.5945 -3.9965 
-3.5005 -4.989 -6.127501 -5.9715 -7.6595 -5.193501 -5.3325 -9.043 -7.7015 -5.745 -7.0755 -8.748501 -6.9515 
-6.2995 -7.8435 -10.2035 -10.3745 -8.0175 -9.436001 -10.233 -12.5052 -9.657001 -11.6848 -11.8598 -11.3069 
-9.6645 -12.2641 -14.6065 -10.745 -12.4714 -14.4405 -13.8542 -14.4607 -15.6414 -16.4691 -14.4182 
-14.1175 -16.6671 -14.977 -15.1989 -17.4759 -18.0617 -15.8097 -20.4451 -20.4257 -19.0275 
