-4.759 
n/a 
n/a 
n/a 
n/a 
-4.759 
n/a 
n/a 
n/a 
n/a 
-4.759 
n/a 
n/a 
n/a 
n/a 
-4.759 
n/a 
n/a 
n/a 
n/a 
-2.356 -1.4985 -3.0785 -1.7565 -2.8965 -3.59 -4.3955 -1.934 -3.691 0 -2.4265 -3.74 -1.7695 -4.052 -1.4985 -4.177 -2.356 -3.502 -3.994 0 -3.7745 -3.994 0 -3.641 -3.994 0 -1.756 -4.2125 -3.959 
-3.1615 -4.779 -5.1815 -4.5345 -5.941 -7.908 -5.776 -4.8225 -3.691 -2.4265 -6.3325 -4.2995 -4.393 -4.752 -4.9125 -4.944 -6.273001 -5.394 -3.994 -3.7745 -5.482 -3.994 -3.641 -6.5535 -3.994 -1.756 -5.907 -5.9505 
-5.297501 -5.2205 -7.418 -8.236 -10.054 -9.156501 -8.5185 -4.8225 -6.4005 -6.3325 -7.0675 -6.814001 -4.9985 -7.657001 -6.431001 -8.4585 -8.2545 -5.394 -6.3505 -5.482 -5.482 -7.107 -6.5535 -6.5535 -5.313 -5.907 -7.503 
-5.3145 -7.451001 -11.4341 -12.5776 -11.4647 -12.1262 -8.5185 -6.876 -11.3825 -7.0675 -9.842 -7.412001 -7.8625 -8.563001 -9.9665 -10.151 -8.2545 -7.6825 -6.954 -5.482 -7.916501 -7.4925 -6.5535 -7.599 -8.9645 -7.503 
-7.666501 -11.4835 -15.7757 -13.9883 -14.4344 -12.1262 -10.801 -12.2824 -12.1175 -9.842 -10.761 -9.713501 -8.7635 -12.3567 -11.6702 -10.151 -10.8496 -7.731 -6.954 -7.916501 -8.853001 -7.4925 -7.599 -10.218 -9.337501 
-3.4775 -3.691 -2.356 -3.849 -3.959 -3.1385 -2.674 -4.196 -4.177 -2.356 -3.502 -3.75 0 -3.7745 -4.317 -1.756 -4.2125 -3.959 
-7.658501 -6.283501 -5.378 -6.252 -7.2755 -4.8995 -5.849 -7.3915 -4.944 -6.273001 -5.0795 -3.75 -3.7745 -6.2505 -5.9925 -5.907 -5.9505 
-10.7626 -9.239 -8.054001 -9.757 -8.729 -8.642501 -9.527 -7.741 -8.4585 -7.698 -5.0795 -5.873 -6.2505 -7.927 -7.208001 -7.503 
-13.7181 -11.9406 -11.685 -11.2541 -12.5662 -12.3889 -9.656501 -11.4073 -9.995501 -7.698 -7.9925 -9 -7.927 -9.6955 -8.0535 
-16.4197 -15.5716 -13.1821 -15.0913 -16.3126 -12.5184 -13.537 -12.9443 -9.995501 -11.398 -11.8093 -10.2535 -9.6955 -10.3835 
-3.4775 0 -2.356 -1.4985 -3.0785 -1.7565 -5.211 -2.5195 -3.948 -3.959 0 -3.691 -2.186 -4.0955 -1.7695 -4.052 -1.4985 -4.177 -3.458 -3.502 -4.317 0 -3.7745 -4.317 0 -3.641 -4.317 -1.756 -4.2125 -3.959 0 
-3.4775 -2.356 -3.1615 -4.779 -5.1815 -6.501 -7.176001 -5.454 -6.288 -3.959 -3.691 -5.832 -5.3355 -4.1555 -4.393 -4.752 -4.9125 -4.8925 -6.8355 -5.926 -4.317 -3.7745 -6.2505 -4.317 -3.641 -7.453001 -5.9925 -5.907 -5.9505 -3.959 
-5.626 -3.1615 -5.297501 -5.2205 -9.938001 -9.743501 -10.8455 -7.112 -6.288 -6.8 -5.832 -8.748 -5.3675 -6.5985 -4.9985 -7.657001 -5.134501 -8.745501 -8.8485 -5.926 -7.644501 -6.2505 -6.2505 -8.519501 -7.453001 -8.543 -7.208001 -7.503 -5.9505 
-6.389501 -5.297501 -5.3145 -9.945001 -13.3783 -13.525 -12.5035 -7.112 -9.799001 -8.7155 -8.748 -8.785001 -7.809 -7.26 -7.8625 -7.905 -9.0235 -10.2135 -8.8485 -9.6885 -8.722 -6.2505 -10.316 -9.406501 -8.543 -9.0755 -8.0535 -7.503 
-8.0465 -5.3145 -10.1305 -13.3899 -17.1598 -15.183 -12.5035 -10.674 -11.7761 -11.7977 -8.785001 -10.6875 -8.393001 -9.856 -8.1105 -12.1102 -10.286 -10.2135 -12.9664 -9.92 -8.722 -10.316 -10.77 -10.1085 -9.0755 -10.4035 -8.0535 
-3.4775 0 -3.691 -4.098 -1.4985 -3.0785 -1.7565 -2.8965 -5.4675 -4.707 -3.115 -7.557 -3.994 -3.7745 -3.994 -3.75 0 -4.2125 -3.959 0 
-3.4775 -3.691 -7.5985 -5.173 -4.779 -5.1815 -4.5345 -8.329 -11.4927 -7.7425 -11.4476 -10.5535 -6.3505 -5.482 -6.75 -3.75 -4.2125 -5.9505 -3.959 
-7.658501 -7.5985 -9.071001 -7.884501 -5.2205 -7.418 -9.844001 -14.9074 -14.5282 -16.2831 -14.4441 -12.91 -6.954 -7.434 -6.75 -6.21 -5.9505 -5.9505 
-12.0776 -9.071001 -11.8851 -9.1715 -7.451001 -13.0421 -16.652 -17.9429 -23.0688 -19.2796 -16.8006 -13.5135 -8.118501 -7.434 -9.3505 -7.643001 -5.9505 
-13.5501 -11.8851 -13.1721 -11.639 -13.0915 -19.8501 -19.6875 -26.4835 -26.0653 -21.6361 -17.4041 -14.678 -8.118501 -10.5745 -11.4685 -7.643001 
