-4.759 
n/a 
n/a 
n/a 
n/a 
-4.759 
n/a 
n/a 
n/a 
n/a 
-4.759 
n/a 
n/a 
n/a 
n/a 
-4.759 
n/a 
n/a 
n/a 
n/a 
-5.127 -1.756 -6.216 -1.756 -1.4985 -4.98 -3.8655 -2.4945 -1.934 -1.4985 -11.0555 
-6.5575 -7.778 -7.6365 -3.0405 -6.3295 -10.932 -5.277 -4.2645 -2.6125 -13.6478 
-8.1645 -9.224501 -9.3675 -7.957 -12.8209 -12.3435 -7.107501 -4.935 -15.156 
-9.651001 -10.265 -14.3226 -14.542 -14.2324 -14.174 -8.047501 -17.8873 
-10.7893 -15.2201 -20.9076 -15.9535 -16.0629 -15.114 -21.3674 
-12.16972 -12.16972 -4.3685 -4.347 -2.3615 -4.1115 -1.7565 -4.3685 -4.6075 -3.354 -1.7565 -4.052 -1.7695 -3.922 0 -4.347 -3.8605 -3.0835 -9.691 0 -8.289001 -3.4985 -4.3685 -1.7565 -7.4075 -1.7695 -5.4455 -1.7695 -3.922 0 
-24.33944 -16.53822 -9.1955 -7.8295 -7.044001 -5.6415 -5.478 -8.5105 -7.519 -4.273 -7.7815 -6.69 -4.5985 -3.922 -4.347 -6.347 -7.18 -13.9847 -9.691 -8.289001 -12.0409 -7.863501 -7.368501 -9.269 -10.1756 -7.212 -8.317 -4.5985 -3.922 
-28.70794 -21.36522 -12.8032 -12.9794 -7.79 -9.9805 -10.3832 -11.6788 -9.227 -10.575 -10.3545 -9.325001 -4.5985 -7.803 -6.347 -9.835501 -18.9346 -13.9847 -17.98 -12.0409 -16.4059 -11.4589 -15.3254 -13.4319 -15.6181 -9.410501 -11.288 -4.5985 
-33.53494 -24.97292 -17.9531 -13.7254 -12.2224 -15.1295 -13.5515 -13.3868 -15.9206 -13.148 -12.9895 -9.325001 -8.2755 -10.3745 -9.835501 -21.7731 -18.9346 -22.2737 -21.7319 -16.4059 -20.0013 -19.4158 -19.4883 -18.8744 -17.8166 -12.3931 -11.288 
-37.14264 -30.12282 -18.6991 -18.1578 -17.3714 -18.2978 -15.2595 -20.0804 -18.4936 -15.783 -12.9895 -13.0804 -11.0466 -13.863 -21.7731 -21.7731 -27.2236 -26.0256 -26.0969 -20.0013 -27.9582 -23.5787 -24.9308 -21.0729 -20.7992 -12.3931 
-1.4985 -7.046 -1.7565 -6.5365 -1.934 -1.4985 -4.6985 -2.8645 -4.8635 -3.6615 -1.934 -1.4985 -5.0525 -3.3435 -3.517 -1.756 -3.1495 -5.0525 -1.756 -4.283 -3.3435 -3.517 -3.0465 -4.4465 -3.851 -1.7695 -3.948 -3.6615 -1.934 -1.4985 -3.6605 -3.545 -5.173 -1.756 -2.4265 -3.074 -4.507 -12.16972 -3.898 0 
-8.23 -7.9665 -7.9315 -7.785001 -2.6125 -5.1995 -7.1295 -5.6965 -9.9135 -4.437 -2.6125 -6.3035 -6.169 -7.271 -4.7095 -5.1725 -8.0485 -6.666 -5.6395 -5.9495 -7.271 -6.9855 -7.5705 -7.486001 -4.0015 -5.414001 -6.769 -4.437 -2.6125 -4.8645 -6.163 -7.3065 -6.209001 -3.949 -4.605 -6.395 -17.86332 -16.06772 -3.898 
-8.483 -14.5407 -8.679501 -8.191001 -5.99 -7.409 -9.703001 -11.2447 -10.4005 -5.0245 -7.121 -7.633 -10.238 -8.779 -7.989501 -10.513 -10.111 -7.895 -7.259501 -10.647 -11.2711 -12.1095 -9.3345 -7.495501 -6.817 -8.38 -7.513 -5.0245 -6.0795 -6.765501 -7.3135 -8.274 -8.695001 -6.14 -7.1435 -20.07472 -21.76132 -16.06772 
-15.2792 -15.2887 -8.882501 -10.085 -7.804501 -10.047 -15.559 -11.7317 -10.988 -8.8815 -9.419001 -12.312 -11.746 -12.2318 -13.6094 -12.5755 -11.4906 -9.18 -12.2662 -14.6471 -16.3951 -13.8735 -9.3385 -10.115 -9.2305 -8.64 -8.077001 -9.349 -8.290501 -8.612 -8.280001 -10.3675 -10.5435 -8.618501 -21.07682 -23.97272 -21.76132 
-16.0272 -15.4917 -10.8721 -12.0111 -10.3675 -16.2906 -16.046 -12.3192 -14.845 -10.7025 -14.185 -13.82 -15.1988 -17.8517 -15.6719 -13.9551 -12.7756 -14.4907 -16.2663 -19.7711 -18.1591 -13.8775 -12.014 -12.5285 -9.5195 -8.9525 -12.5885 -11.6208 -10.459 -9.908001 -10.381 -12.3396 -13.022 -22.63902 -24.97482 -23.97272 
-1.8085 -5.947001 -4.6805 -1.7565 -5.049 -5.4385 -3.4715 -5.1595 0 -2.9705 -2.4945 -3.4905 -1.7695 -3.1435 -3.9455 -2.5045 -3.6065 -3.8655 -1.756 -1.934 -3.6065 -4.4605 0 -4.4985 -2.264 -1.4985 -4.287 -4.2485 -1.756 -5.0295 -3.5445 -1.4985 -4.6985 -2.3335 -1.4985 -5.947001 -4.359 -3.3255 -2.264 -3.1435 -3.3755 -1.7695 -1.4985 -4.1365 -2.5045 -1.8085 -3.777 0 -2.4265 -2.186 -4.51 -4.2595 -1.7695 -4.991 -3.2495 -4.84 -6.218 0 
-7.021501 -10.199 -4.722 -6.439001 -11.08 -9.797501 -6.6445 -5.1595 -2.9705 -4.302 -5.416 -3.808 -4.49 -5.9565 -7.048 -5.376 -6.521 -5.0185 -4.0205 -4.9755 -6.6645 -4.4605 -4.4985 -4.548 -2.9195 -5.4565 -7.898 -5.4505 -6.219 -8.0155 -4.002 -5.1995 -6.3635 -3.3515 -7.244 -8.958 -6.7015 -6.0185 -4.6705 -5.369 -3.992 -2.7955 -4.6595 -6.339001 -3.3625 -4.3955 -3.777 -2.4265 -3.292 -5.325 -6.0005 -4.663 -6.2355 -7.912001 -6.653 -9.3955 -6.218 
-10.609 -10.221 -8.3245 -12.9908 -15.439 -13.2079 -6.6445 -7.0665 -4.302 -7.177001 -5.798 -6.9995 -7.100501 -8.961 -9.6815 -6.835001 -7.467 -7.399 -6.833 -7.931 -6.6645 -8.14 -4.548 -4.8395 -6.837501 -8.858001 -8.6505 -6.4795 -8.657001 -8.3105 -7.8555 -7.179501 -8.009501 -9.27 -9.9455 -10.2045 -9.231001 -7.535 -5.8435 -5.952 -5.351 -5.583 -6.6035 -7.3325 -4.4445 -4.3955 -6.1075 -3.292 -6.0575 -6.593 -6.3665 -8.9075 -8.967501 -10.7175 -9.7305 -9.3955 
-10.629 -13.8235 -14.9903 -17.3498 -18.8494 -13.2079 -8.5375 -7.6945 -7.177001 -7.756001 -8.817501 -9.795501 -9.903001 -11.8465 -11.1965 -7.680501 -8.614 -8.705501 -9.585001 -7.931 -9.0395 -8.188001 -4.8395 -8.822001 -10.2585 -9.6885 -9.547501 -8.744 -8.990001 -10.298 -9.577001 -8.545501 -10.403 -10.3685 -10.339 -10.39 -10.362 -8.5205 -6.2755 -6.5265 -7.8585 -7.3025 -7.653501 -8.13 -4.4445 -6.276 -6.5935 -6.0575 -6.8915 -6.861 -10.411 -11.7851 -11.8402 -13.795 -9.7305 
-14.2315 -20.4893 -19.3493 -20.7602 -18.8494 -15.1009 -9.151 -10.5745 -7.756001 -10.3605 -10.674 -12.598 -12.8621 -13.3615 -12.042 -8.627001 -8.727 -10.122 -9.585001 -9.7635 -9.0695 -8.443501 -8.822001 -10.368 -10.39 -10.192 -10.3835 -9.0915 -10.382 -10.413 -10.3555 -10.403 -10.4155 -10.394 -10.3965 -10.402 -10.3735 -8.627001 -6.995501 -8.9595 -9.673 -8.509501 -8.3105 -8.13 -6.2835 -6.7245 -8.881001 -6.8915 -7.0155 -10.513 -13.2886 -14.6578 -14.9177 -13.795 
