-4.759 
n/a 
n/a 
n/a 
n/a 
-4.759 
n/a 
n/a 
n/a 
n/a 
-4.759 
n/a 
n/a 
n/a 
n/a 
-4.759 
n/a 
n/a 
n/a 
n/a 
-2.3615 -3.8735 -2.8645 -4.1935 -1.8085 -2.688 -3.3755 -1.7695 -1.4985 -3.3195 -4.9355 0 
-4.95 -6.3455 -6.2245 -5.681 -3.642 -5.462501 -3.992 -2.7955 -4.7185 -6.244 -4.9355 
-6.6625 -10.7495 -7.1235 -7.3525 -5.6555 -5.832 -5.351 -5.9345 -6.908 -6.244 
-11.3303 -11.6485 -8.478001 -9.227 -6.0205 -8.797501 -8.936501 -9.0465 -6.908 
-12.2293 -13.003 -10.5125 -9.750501 -8.936001 -12.5394 -10.5645 -9.0465 
-2.3615 -3.8735 -3.8755 -1.8085 -2.688 -4.837 -1.7565 -3.3195 -1.7695 -1.4985 -4.2065 0 
-4.95 -6.375 -5.0255 -3.642 -6.2065 -5.708 -4.8675 -5.492001 -2.7955 -5.0305 -4.2065 
-9.4785 -9.271 -6.046 -6.4365 -7.139 -8.920501 -6.749001 -6.474 -6.2875 -5.0305 
-10.0975 -10.329 -9.1035 -7.3145 -9.637 -10.9646 -7.856501 -9.0465 -6.2875 
-11.2481 -13.3865 -9.736 -10.006 -11.8237 -12.0721 -10.1715 -9.0465 
-2.3615 -4.405 -3.8735 -3.8755 -1.8085 -2.688 -3.3755 -1.7565 -3.3195 -4.1445 0 -4.9955 
-6.8005 -7.940001 -6.375 -5.0255 -3.642 -5.462501 -4.5295 -4.8675 -6.227 -4.1445 -4.9955 
-9.5775 -10.9625 -9.271 -6.046 -5.6555 -6.053 -8.417001 -7.6825 -6.227 -8.963 
-13.234 -13.8585 -10.329 -8.208 -6.2405 -9.9405 -11.408 -7.6825 -10.4265 
-16.13 -14.9165 -12.491 -8.714001 -10.388 -12.9315 -11.408 -11.9506 
-2.3615 -3.3195 -4.3465 -1.4985 -2.688 -4.837 -1.7695 -3.3195 -12.16972 
-6.046 -7.991 -5.372001 -3.702 -6.2065 -6.117001 -5.453001 -16.55622 
-9.861 -9.248501 -7.743001 -7.7095 -6.6755 -8.694501 -19.25592 
-11.2729 -11.6493 -11.8995 -9.319 -9.594501 -23.21802 
-13.6737 -15.8058 -13.509 -12.3196 -24.18782 
