-4.759 
n/a 
n/a 
n/a 
n/a 
-4.759 
n/a 
n/a 
n/a 
n/a 
-4.759 
n/a 
n/a 
n/a 
n/a 
-4.759 
n/a 
n/a 
n/a 
n/a 
-1.934 -2.5685 -3.1495 -2.871 -4.015 -3.8675 -3.5745 -2.7415 -1.4985 -3.8675 -3.458 -3.982 -1.756 -9.110001 -2.0935 -7.991001 0 
-4.244 -4.8995 -6.672 -5.942 -7.951 -7.4085 -5.8505 -4.063 -4.976 -5.3915 -7.106501 -5.4715 -8.7435 -9.517 -7.429 -5.6175 
-6.272501 -8.5555 -10.1675 -10.281 -11.7636 -10.341 -7.697 -7.9565 -6.422501 -8.773001 -7.2105 -8.476 -10.5425 -14.5552 -6.8995 
-10.1305 -12.2366 -14.5065 -14.0936 -14.6961 -12.4287 -11.7115 -9.073 -9.588501 -8.855 -10.0025 -10.5025 -15.5334 -14.6044 
-13.8116 -16.5756 -18.3191 -17.0261 -16.7838 -16.4432 -12.828 -12.2352 -9.634501 -11.265 -12.0405 -15.9264 -15.5334 
-3.9225 -2.5685 -1.4985 -3.17 -3.699 -3.8675 -2.186 -3.458 -3.982 -1.756 -9.110001 -4.154 -2.985 -8.594 0 
-5.686 -3.7015 -3.7115 -4.663 -7.979 -5.4765 -5.6835 -7.106501 -5.4715 -8.7435 -11.385 -6.0415 -8.713501 -6.360001 
-6.399 -6.452 -4.8395 -9.1055 -9.682501 -7.5575 -9.935501 -7.2105 -8.476 -12.9057 -13.7495 -12.2415 -9.1315 
-9.588 -7.5015 -9.206 -10.335 -11.9017 -12.2639 -10.008 -10.0025 -13.424 -15.2368 -20.0407 -12.3327 
-10.355 -12.1084 -10.435 -12.704 -16.6081 -12.3364 -12.4822 -14.9325 -15.6003 -21.528 -20.0407 
-1.4985 -3.0835 -3.72 -3.8675 -2.9705 -2.186 -3.383 -3.699 -3.458 -3.982 0 -4.489 -1.756 -4.621 
-3.535 -7.412001 -8.02 -6.1145 -3.89 -4.438 -5.014 -8.104501 -7.106501 -3.982 -4.489 -6.2105 -6.6635 
-8.1625 -12.3322 -9.959001 -7.0385 -5.9925 -5.451 -9.198501 -11.8602 -7.106501 -6.33 -6.2105 -7.7605 
-13.3839 -14.2712 -10.9692 -9.429001 -7.1495 -9.412001 -13.014 -11.8602 -9.1695 -7.127 -7.7605 
-15.3229 -15.2814 -13.3597 -9.743 -11.2001 -13.2231 -13.014 -13.9232 -9.4525 -8.827001 
-1.4985 -3.699 -4.015 -3.8675 -2.7415 0 -2.9705 -3.43 -3.458 -4.176 -1.756 -9.110001 -3.8675 
-5.264 -8.3665 -7.951 -6.0175 -2.7415 -2.9705 -5.781 -6.013 -7.489501 -5.847 -8.7435 -11.5815 
-9.752001 -12.7409 -9.6975 -6.0175 -6.948501 -5.781 -10.1765 -10.199 -7.785 -10.9215 -13.1022 
-14.48 -14.4874 -9.6975 -11.2105 -8.961 -10.1765 -14.3625 -10.5505 -13.053 -15.8795 
-16.2265 -14.4874 -14.8967 -13.223 -13.6229 -14.3625 -14.714 -15.8185 -18.3985 
