-4.759 
n/a 
n/a 
n/a 
n/a 
-4.759 
n/a 
n/a 
n/a 
n/a 
-4.759 
n/a 
n/a 
n/a 
n/a 
-4.759 
n/a 
n/a 
n/a 
n/a 
-3.1015 -2.7295 -2.674 -3.849 -3.84 -3.7015 -1.4985 -5.891 -4.3275 0 
-4.9525 -3.8 -5.656 -7.476501 -6.6285 -4.3435 -6.9925 -10.1595 -4.3275 
-5.731 -6.3705 -9.207001 -10.852 -7.991 -8.989501 -11.9442 -10.1595 
-8.509 -9.903501 -12.7281 -12.2145 -12.84 -14.1962 -11.9442 
-12.1038 -13.5306 -14.0906 -17.0635 -18.0467 -14.1962 
-5.42 -5.891 -4.7715 -8.092 -1.7695 -6.241 0 
-12.0396 -10.647 -13.8399 -9.6065 -8.654 -6.241 
-16.7956 -19.7154 -15.3544 -16.7208 -8.654 
-25.864 -21.2299 -22.4687 -16.7208 
-27.3785 -28.3442 -22.4687 
-3.1015 -4.931 -4.179 -2.4945 -9.248 -3.7015 -5.891 -3.402 -4.345 0 
-8.799 -7.440001 -5.893001 -10.6095 -13.3035 -8.538 -7.641 -6.075 -4.345 
-10.4595 -9.2255 -14.7252 -14.665 -18.14 -9.4075 -9.432501 -6.075 
-12.245 -18.2613 -18.7807 -19.5015 -19.0095 -11.4852 -9.432501 
-21.2808 -22.3168 -23.6172 -20.371 -21.0872 -11.4852 
-3.321 -3.4865 -4.179 -3.6955 -2.0935 -3.277 
-7.732 -7.320001 -7.842501 -5.8655 -4.694 
-11.7709 -11.3433 -9.933001 -7.9685 
-15.7942 -13.4338 -12.557 
-17.8847 -16.0578 
