-4.759 
n/a 
n/a 
n/a 
n/a 
-4.759 
n/a 
n/a 
n/a 
n/a 
-4.759 
n/a 
n/a 
n/a 
n/a 
-4.759 
n/a 
n/a 
n/a 
n/a 
-2.264 -2.3615 -4.1175 -5.6295 -5 -3.2295 -1.4985 -3.962 -3.8375 -1.7695 -4.559 
-3.8255 -6.37 -10.8132 -10.6095 -6.0585 -3.844 -4.324 -7.1325 -6.124001 -6.2435 
-6.441501 -13.1473 -15.7932 -11.668 -6.9875 -6.291 -7.170001 -8.909 -9.5325 
-13.2494 -18.1273 -16.8517 -12.597 -9.634 -8.284 -9.017501 -12.5063 
-18.2294 -19.1858 -17.7807 -15.2435 -11.7192 -10.3545 -12.6176 
-4.8685 -3.893 -2.3615 -5.6295 -4.3465 -3.3365 -3.8375 -1.7695 -4.065 
-5.934 -5.835 -8.87 -8.959001 -7.595 -8.327001 -6.124001 -6.2135 
-7.949 -12.5731 -12.3635 -12.4307 -13.2909 -10.31 -9.906501 
-15.0897 -16.0666 -15.8352 -18.1266 -15.2739 -14.6877 
-18.5832 -19.5383 -21.5311 -20.1096 -19.6516 
-3.402 -2.264 -2.3615 -2.925 -3.251 -3.8805 -3.2295 -1.4985 -3.8375 -1.7565 0 -5.6295 0 -1.7695 -12.16972 
-3.793 -3.8255 -5.8255 -4.617 -7.7795 -5.9075 -3.844 -5.0225 -5.3875 -1.7565 -5.6295 -5.6295 -1.7695 -14.92142 
-5.686501 -7.3765 -7.6415 -9.2005 -10.204 -6.5535 -7.103 -5.7405 -5.3875 -7.1485 -5.6295 -7.676001 -14.92142 
-8.63 -9.162001 -12.4448 -11.732 -10.9952 -10.0815 -8.1415 -5.7405 -11.8021 -7.1485 -7.676001 -21.29312 
-10.6465 -14.1829 -14.9763 -12.5232 -14.5232 -10.7655 -8.1415 -12.3587 -11.8021 -9.856501 -21.29312 
-2.264 -1.4985 -4.1175 -1.7565 -2.3615 -5.6295 -5 -3.2295 -1.4985 -3.962 -3.8375 -1.7695 -1.4985 -4.065 0 
-2.9195 -4.6915 -4.7545 -3.523 -8.87 -10.6095 -6.0585 -3.844 -4.324 -7.1325 -6.124001 -2.7955 -4.824 -4.065 
-4.9245 -4.851 -6.4315 -9.820001 -14.014 -11.668 -6.9875 -6.291 -7.170001 -8.909 -6.9685 -6.201 -4.824 
-4.9575 -6.4705 -12.9573 -14.964 -15.0725 -12.597 -9.634 -8.284 -9.017501 -9.969501 -9.367001 -6.201 
-6.6285 -13.0323 -18.1013 -16.0225 -16.0015 -15.2435 -11.7192 -10.3545 -9.975501 -12.368 -9.367001 
