-4.759 
n/a 
n/a 
n/a 
n/a 
-4.759 
n/a 
n/a 
n/a 
n/a 
-4.759 
n/a 
n/a 
n/a 
n/a 
-4.759 
n/a 
n/a 
n/a 
n/a 
-3.5435 -3.5035 -4.3625 -4.729 -7.202 -4.288 -2.925 -2.4945 -3.7875 -2.461 -3.699 -3.2895 -4.5645 -3.401 0 -3.9845 -1.756 -4.191 -3.2895 -3.401 
-6.2355 -8.623501 -8.2045 -7.8945 -12.4084 -5.9015 -3.7675 -5.3155 -7.0295 -6.981501 -7.571 -7.655 -8.1175 -3.401 -3.9845 -5.059 -6.3155 -8.9855 -7.255 
-12.3135 -12.6567 -10.013 -13.1201 -14.0219 -6.791 -6.508 -9.018001 -11.9234 -11.1819 -12.7851 -11.7784 -8.1175 -7.318001 -5.059 -8.8345 -11.9384 -13.3758 
-16.3467 -14.4652 -15.328 -14.7336 -14.9114 -8.9715 -10.1345 -13.9709 -16.1238 -16.396 -16.9085 -11.7784 -12.9845 -8.259001 -8.8345 -14.755 -16.3287 
-18.1552 -19.7802 -16.9415 -15.6231 -17.0919 -12.9234 -15.0874 -18.1713 -21.3379 -20.5194 -16.9085 -16.6454 -13.9255 -12.3559 -14.755 -19.1453 
-3.5435 -3.5035 -4.266 -4.729 -7.202 0 -2.3335 -5.228 -2.674 -1.4985 -3.4635 -3.54 -4.6195 -3.115 -5.223 -3.2895 0 -5.197 -3.2895 -1.756 -4.191 -3.2895 
-6.2355 -6.165 -7.644501 -7.8945 -7.202 -2.3335 -7.8245 -8.436001 -3.998 -3.6265 -6.032001 -7.737 -7.4205 -8.991501 -10.647 -3.2895 -5.197 -10.0925 -4.799 -6.3155 -8.9855 
-10.041 -9.4265 -11.2592 -7.8945 -9.874001 -7.8245 -11.2043 -10.1995 -5.6695 -6.068501 -10.8638 -10.7848 -13.5206 -14.6241 -10.647 -9.177 -10.0925 -10.367 -10.038 -11.9384 
-13.3025 -13.5962 -11.2592 -10.4425 -15.3954 -11.2043 -12.9678 -11.871 -8.0795 -10.9625 -13.9116 -16.8849 -19.1532 -14.6241 -16.5345 -14.4715 -10.367 -16.3632 -15.6609 
-17.4722 -13.5962 -13.8072 -15.9639 -18.7752 -12.9678 -14.6393 -14.281 -13.3463 -14.0103 -20.0117 -22.5175 -19.1532 -20.5116 -21.829 -14.746 -16.3632 -21.9861 
-3.5435 -3.5035 -4.1985 -4.729 -7.202 -3.644 -1.4985 -3.6845 -3.2895 -2.4945 -3.7855 
-6.2355 -7.795 -8.733 -7.8945 -10.2435 -4.97 -5.693501 -7.977 -5.4165 -5.125 
-11.485 -12.6335 -12.0999 -10.9552 -11.5695 -9.592501 -10.553 -10.504 -7.988 
-16.3235 -16.0004 -15.1606 -12.2812 -16.192 -14.5598 -13.08 -13.0755 
-19.6904 -19.0611 -16.4866 -16.9037 -21.1593 -17.0868 -15.6515 
-3.5435 -3.6285 -1.7565 -4.729 -7.202 -3.644 -4.455 -2.674 -1.4985 -3.4635 -3.54 -3.2895 0 -3.7535 0 -3.9845 -1.756 -4.191 0 
-7.922 -4.851 -6.528501 -7.8945 -10.2435 -8.453501 -7.97 -3.998 -3.6265 -6.032001 -8.040501 -3.2895 -3.7535 -3.7535 -3.9845 -5.059 -6.3155 -4.191 
-9.6435 -9.5255 -8.976001 -10.9552 -15.053 -12.2201 -9.687501 -5.6695 -6.068501 -10.4185 -8.040501 -8.025001 -3.7535 -8.011001 -5.059 -8.8345 -6.3155 
-14.3554 -12.3112 -12.3901 -15.7647 -18.8196 -13.9376 -11.359 -8.0795 -10.442 -10.4185 -13.4036 -8.025001 -8.011001 -8.762501 -8.8345 -8.8345 
-17.1411 -15.7253 -17.1996 -19.5313 -20.5371 -15.6091 -13.769 -12.8258 -10.442 -15.7816 -13.4036 -12.5695 -8.762501 -13.0476 -8.8345 
