-4.759 
n/a 
n/a 
n/a 
n/a 
-4.759 
n/a 
n/a 
n/a 
n/a 
-4.759 
n/a 
n/a 
n/a 
n/a 
-4.759 
n/a 
n/a 
n/a 
n/a 
-3.433 -1.7565 -2.3335 -1.4985 -4.891 -2.4945 -4.3215 -2.7455 -1.4985 -5.8895 -2.5195 -1.4985 -3.9075 
-4.1845 -4.314 -3.3515 -5.891001 -6.905001 -6.37 -7.622001 -3.637 -7.506001 -6.5045 -3.1695 -5.5015 
-6.014 -6.3585 -7.717 -7.324501 -11.3077 -9.323501 -8.336 -10.2865 -9.4945 -7.011 -7.641 
-7.328 -10.159 -8.583 -12.0474 -14.2612 -10.5545 -15.3213 -12.4084 -10.152 -12.0799 
-11.2127 -11.025 -13.4305 -15.0009 -15.4922 -17.5398 -17.4432 -13.0659 -15.2209 
-3.433 -1.7565 -2.3615 -1.4985 -4.891 -4.3215 -1.4985 -3.5435 -2.3335 -2.925 -2.4945 -5.085 -1.4985 -4.241 -4.431 0 
-4.1845 -3.523 -4.913 -5.891001 -9.126501 -5.252 -4.2755 -5.8015 -4.0295 -3.7675 -6.702 -6.1495 -5.311501 -6.247 -4.431 
-5.5485 -6.101 -9.456501 -9.366501 -10.0105 -7.8595 -6.5015 -7.416501 -4.811 -7.933501 -7.9015 -10.3845 -7.328501 -6.247 
-6.6435 -10.5035 -12.9954 -10.239 -12.7026 -10.8937 -7.883 -8.374001 -8.693501 -8.746 -12.3191 -12.4015 -7.328501 
-11.1722 -14.0424 -13.8679 -12.9311 -15.7368 -12.2752 -8.772 -12.4141 -9.377501 -13.197 -14.3361 -12.4015 
-2.5045 -1.8085 -3.777 -4.891 -3.251 -5.2645 -2.5195 -4.4435 -3.7535 -2.356 -1.4985 -3.5435 0 
-3.3625 -4.3955 -10.0285 -7.578501 -7.117001 -6.094 -6.614 -8.7875 -5.7045 -3.1615 -4.2755 -3.5435 
-4.4445 -10.322 -12.716 -11.6857 -7.696001 -11.0645 -11.5634 -9.6805 -6.397 -5.8645 -4.2755 
-10.3225 -13.0095 -16.8232 -12.2647 -12.9685 -16.0139 -12.4564 -10.226 -8.6105 -5.8645 
-13.01 -17.1167 -17.4022 -17.5372 -17.9179 -16.9069 -13.0019 -12.4395 -8.6105 

n/a 
n/a 
n/a 
n/a 
