-4.759 
n/a 
n/a 
n/a 
n/a 
-4.759 
n/a 
n/a 
n/a 
n/a 
-4.759 
n/a 
n/a 
n/a 
n/a 
-4.759 
n/a 
n/a 
n/a 
n/a 
-3.8825 -6.349 -2.186 -9.286 -1.7695 -4.455 -8.836 -3.6535 
-10.9575 -8.639001 -12.6824 -9.619 -6.5835 -10.575 -12.5933 
-13.2475 -19.326 -13.0154 -14.618 -13.2803 -14.3323 
-23.9345 -19.659 -18.0144 -21.3148 -17.0376 
-24.2675 -24.658 -24.7112 -25.0721 
-3.8825 -4.455 -2.186 -7.5715 -3.741 
-8.158001 -6.646001 -10.443 -10.022 
-9.591001 -15.3188 -12.8935 
-18.582 -17.7693 
-21.0325 
-3.485 -4.455 -2.186 -4.467 -3.741 
-8.225 -6.646001 -7.398001 -6.335 
-9.794001 -10.041 -9.291 
-13.2286 -10.723 
-13.9106 
-3.8825 -3.9725 -2.186 -4.455 -7.5715 -3.741 0 -4.455 -4.467 -3.741 0 
-7.692 -6.1365 -7.285501 -9.185501 -10.022 -3.741 -4.455 -5.8545 -6.335 -3.741 
-9.401001 -9.8785 -12.3544 -10.0895 -10.022 -7.569 -5.8545 -6.430501 -6.335 
-13.2654 -15.0142 -13.2584 -10.0895 -13.982 -8.508 -6.430501 -6.430501 
-18.4011 -15.9182 -13.2584 -14.0755 -14.921 -9.224 -6.430501 
