-4.759 
n/a 
n/a 
n/a 
n/a 
-4.759 
n/a 
n/a 
n/a 
n/a 
-4.759 
n/a 
n/a 
n/a 
n/a 
-4.759 
n/a 
n/a 
n/a 
n/a 
-3.535 -4.867 0 -4.313 -1.7565 -4.628 -4.743 -3.5435 
-8.498 -4.867 -4.313 -5.391 -6.107501 -4.7515 -7.819 
-8.498 -10.8215 -5.391 -10.7104 -6.281001 -7.830501 
-14.6215 -11.8995 -10.7104 -10.8839 -9.186001 
-15.6995 -17.2189 -10.8839 -13.7889 
-3.94 -3.522 0 -3.5435 -4.2655 -1.7565 -6.6585 
-6.281 -3.522 -3.5435 -7.3215 -6.026 -8.343 
-6.281 -7.677501 -7.3215 -9.995501 -13.5609 
-8.602501 -11.9325 -9.995501 -17.9084 
-14.5191 -14.6065 -17.9084 
-3.0835 -4.867 0 -3.4075 -4.2655 -1.934 -6.6585 
-7.389 -4.867 -3.4075 -7.573 -5.8575 -7.809 
-7.389 -8.975 -7.573 -9.0345 -12.5831 
-11.9286 -13.4461 -9.0345 -15.8363 
-16.3997 -14.9076 -15.8363 
-4.0885 -3.522 0 -4.628 -5.939 -3.5435 -3.288 
-6.997 -3.522 -4.628 -5.9615 -7.053 -6.2725 
-6.997 -8.1315 -5.9615 -7.0565 -10.4246 
-12.3095 -9.370001 -7.0565 -10.4303 
-13.548 -10.593 -10.4303 
