-4.759 
n/a 
n/a 
n/a 
n/a 
-4.759 
n/a 
n/a 
n/a 
n/a 
-4.759 
n/a 
n/a 
n/a 
n/a 
-4.759 
n/a 
n/a 
n/a 
n/a 
-3.1725 -3.531 -1.7565 -1.4985 -3.367 -2.3335 -2.3615 -2.186 -1.8085 -3.5765 -1.7695 -3.2955 -1.7695 -3.5035 -3.4635 -3.9495 -3.894 0 
-6.084001 -5.671 -2.4195 -4.6965 -5.524 -4.2805 -3.5005 -3.164 -4.87 -4.106 -6.642001 -3.9425 -5.206 -6.8645 -5.798 -7.6375 -3.894 
-8.425501 -5.8835 -5.605 -6.136001 -7.523 -5.0055 -4.179 -6.0945 -5.678 -9.474 -7.693501 -6.975 -8.628 -9.59 -9.34 -7.6375 
-8.967 -8.005501 -7.389 -7.9245 -8.106 -5.640501 -6.435 -6.143 -10.621 -10.191 -10.5125 -9.701 -9.7985 -9.8395 -9.34 
-11.3346 -9.0655 -9.534 -8.429501 -8.710501 -9.289001 -6.522 -10.621 -10.667 -10.6555 -10.6625 -10.611 -9.84 -9.8395 
-3.115 -4.724 -3.275 -2.5195 -1.756 -1.7695 -3.423 0 -6.143001 -3.074 -3.6005 -2.5195 -1.756 -1.7695 -3.423 
-7.245 -7.890501 -5.8945 -5 -3.963 -4.648 -3.423 -3.6065 -7.322001 -5.977 -6.102 -5 -3.963 -4.648 
-10.6501 -10.361 -9.4895 -6.318501 -6.6685 -4.648 -6.2575 -7.527501 -10.758 -8.41 -9.3205 -6.318501 -6.6685 
-13.1206 -13.956 -10.1695 -9.147 -6.6685 -8.839001 -10.66 -10.674 -13.107 -11.8315 -10.2095 -9.147 
-16.7156 -14.636 -13.1614 -9.147 -11.078 -13.4197 -13.8065 -13.107 -16.5285 -12.7205 -13.038 
-4.724 -4.7515 -2.186 -3.6515 -2.264 -1.7695 -3.423 -3.321 -3.486 -2.264 -2.7275 -3.4155 -1.7695 -3.563 -3.4155 -2.264 -1.7695 -3.4155 -3.423 0 
-9.255501 -5.912 -4.575 -4.7115 -4.484 -4.648 -6.593 -7.7015 -6.232 -5.699 -3.6065 -4.904 -4.525 -5.4665 -5.829 -4.484 -5.93 -4.4635 -3.423 
-12.4688 -8.829 -5.476 -6.4005 -7.7885 -8.613001 -11.7687 -10.096 -9.989 -6.6815 -5.160501 -7.3245 -6.7185 -8.311001 -8.388 -9.030001 -8.568 -4.4635 
-15.3858 -10.533 -7.6215 -9.198001 -12.0001 -13.6739 -14.1632 -13.9152 -10.9715 -8.4425 -7.573 -8.865001 -8.6685 -10.6215 -13.419 -11.8852 -8.568 
-17.0898 -12.6785 -10.071 -13.5702 -17.061 -16.0684 -17.9824 -14.8977 -12.7325 -10.074 -10.281 -11.3464 -11.3346 -15.6525 -16.2742 -11.8852 
-4.079 -3.4155 -4.024 -2.186 -3.6005 -4.825 -1.756 -4.673 -3.423 -3.1725 -2.186 -3.6005 -5.9 -1.756 -5.0735 -3.4155 -3.531 0 
-7.693501 -6.4285 -6.929501 -4.4615 -8.406 -6.126 -6.1975 -7.878 -5.782001 -5.5235 -4.4615 -9.6415 -6.573 -6.5675 -9.617001 -6.6245 -3.531 
-11.7921 -8.682001 -9.832001 -9.9645 -10.0225 -6.823 -9.0015 -10.7672 -8.311001 -6.929 -10.9491 -10.289 -7.2955 -11.4514 -13.0838 -6.6245 
-14.0456 -12.2825 -15.3188 -11.731 -11.5045 -9.863001 -12.4479 -13.2962 -9.0015 -14.5662 -11.5966 -10.576 -12.8486 -14.9182 -13.0838 
-17.6461 -17.7693 -17.0853 -13.213 -14.5445 -13.3094 -14.9769 -13.9867 -17.2655 -15.2137 -11.8836 -16.1291 -16.3154 -14.9182 
