-4.759 
n/a 
n/a 
n/a 
n/a 
-4.759 
n/a 
n/a 
n/a 
n/a 
-4.759 
n/a 
n/a 
n/a 
n/a 
-4.759 
n/a 
n/a 
n/a 
n/a 
-3.074 -3.4985 -4.4525 -2.5045 -1.8085 -4.7285 0 -2.4265 -4.537 -1.4985 -4.3955 -2.5045 0 -1.8085 -3.432 -2.9705 -2.8645 -1.8085 -5.34 -4.578 0 0 
-6.664001 -7.3675 -6.055501 -3.3625 -5.717 -4.7285 -2.4265 -5.8875 -5.6315 -4.95 -6.0835 -2.5045 -1.8085 -5.4785 -6.786 -4.6335 -3.9785 -7.420501 -9.453001 -4.578 0 
-10.7025 -9.193001 -7.8985 -7.6415 -5.717 -6.8585 -5.8875 -7.054501 -9.3015 -7.641001 -6.0835 -3.3625 -5.4785 -8.565001 -8.099501 -5.6305 -8.675 -12.4301 -9.453001 -4.578 
-12.528 -11.1026 -12.4037 -7.6415 -7.838 -10.494 -7.054501 -10.292 -12.0605 -7.641001 -7.5245 -7.287001 -8.565001 -10.1595 -8.809 -10.532 -14.4646 -12.4301 -9.453001 
-14.4376 -15.6078 -12.4037 -9.56 -11.6485 -11.661 -10.292 -13.0514 -12.0605 -9.147501 -11.7184 -10.041 -10.1595 -10.869 -14.0073 -16.3216 -14.4646 -12.4301 
-2.7295 -3.047 -2.3615 -2.5045 -1.8085 -4.7285 0 -3.3715 -3.681 -1.756 -3.6065 -4.837 -2.4945 -2.3615 -4.3955 0 
-5.018 -4.672 -5.006 -3.3625 -5.717 -4.7285 -3.3715 -5.4275 -5.349 -5.5745 -7.186501 -7.47 -5.9245 -7.065001 -4.3955 
-6.566 -6.231 -5.589 -7.6415 -5.717 -8.189001 -5.4275 -6.9805 -8.580001 -9.413 -10.228 -11.1192 -10.7575 -7.065001 
-7.235 -6.568501 -10.0885 -7.6415 -9.381001 -10.4456 -6.9805 -10.1545 -12.6437 -12.6889 -13.8772 -15.9522 -10.7575 
-7.523 -11.48 -10.0885 -11.4455 -11.6568 -11.9986 -10.1545 -14.3604 -15.9196 -16.3381 -18.7102 -15.9522 
-2.645 -3.2295 -2.4265 -4.641 -1.7695 -2.489 0 -5.0195 -3.473 -3.6445 0 -2.5045 -1.4985 -4.3955 -2.0935 -1.4985 -3.486 
-6.2145 -5.3715 -6.0295 -5.0455 -3.1405 -2.489 -5.0195 -8.650001 -7.5315 -3.6445 -2.5045 -3.583 -4.95 -6.302 -2.9725 -3.5655 
-8.2335 -8.893001 -6.8405 -5.4855 -3.1405 -7.244 -8.650001 -13.0907 -7.5315 -5.9575 -3.583 -7.544001 -7.6785 -7.0715 -5.1745 
-12.3214 -10.526 -7.2645 -5.4855 -7.774 -11.4685 -13.0907 -13.0907 -10.275 -7.048 -7.544001 -9.766001 -8.293501 -9.3885 
-13.9544 -10.95 -7.2645 -10.0775 -12.1095 -15.9092 -13.0907 -15.8342 -11.3655 -11.2802 -9.766001 -10.3445 -10.6875 
-2.7835 -2.7295 -3.962 -1.934 -1.4985 -3.9355 -2.4265 -3.757 0 -1.4985 -3.16 -3.7875 -3.3715 -3.6615 0 
-4.405 -6.874001 -4.8165 -2.6125 -4.8035 -5.9535 -5.0425 -3.757 -1.4985 -4.0625 -7.7255 -6.787 -6.038 -3.6615 
-9.379001 -8.3435 -5.392 -5.941 -7.294001 -8.1285 -5.0425 -4.9595 -4.0625 -8.334001 -10.9704 -10.115 -6.038 
-11.1297 -8.71 -8.7825 -8.8675 -9.777 -8.1285 -6.3815 -8.268001 -8.334001 -11.5805 -14.2984 -10.115 
-11.4962 -12.4331 -11.496 -11.5137 -9.777 -9.365001 -9.694 -13.2599 -11.5805 -14.9085 -14.2984 
