-4.759 
n/a 
n/a 
n/a 
n/a 
-4.759 
n/a 
n/a 
n/a 
n/a 
-4.759 
n/a 
n/a 
n/a 
n/a 
-4.759 
n/a 
n/a 
n/a 
n/a 
-4.5845 -3.074 -4.9925 -1.7695 -5.895 -2.985 -4.6075 -1.7695 -4.1865 -4.241 -4.4165 -3.9665 
-8.1435 -7.5175 -5.272501 -7.565001 -9.1155 -6.484 -6.2725 -6.303 -7.936501 -6.8265 -7.6835 
-12.8534 -7.644 -10.2485 -9.534 -9.8725 -7.9675 -10.4345 -10.4505 -8.363501 -7.692501 
-12.9799 -12.8506 -12.3585 -10.311 -9.950001 -12.3589 -14.582 -10.8775 -8.436501 
-18.1865 -14.9606 -13.1355 -10.3885 -16.1274 -16.5064 -15.009 -10.9505 
-1.4985 -5.3745 -4.891 -3.074 -4.9775 -1.7695 -3.8805 -3.2295 -2.985 -3.8275 -3.7855 -1.7695 -1.4985 -4.1865 -4.241 -4.4165 -3.9665 
-6.2355 -7.061501 -8.042001 -7.120501 -5.224501 -5.6375 -5.9075 -5.539001 -6.771501 -8.148001 -5.5325 -2.7955 -5.177 -7.936501 -6.8265 -7.6835 
-7.2945 -11.6047 -12.4225 -7.219501 -7.718001 -6.411 -7.384 -9.5045 -10.1225 -9.663501 -6.567 -6.5165 -8.515501 -8.363501 -7.692501 
-12.3709 -15.9852 -12.5215 -9.814501 -7.857501 -7.7015 -11.7507 -12.9039 -11.6972 -10.6625 -9.7325 -9.998 -8.714001 -8.436501 
-16.7514 -16.0842 -15.1165 -9.8795 -9.272501 -12.224 -15.1501 -14.4786 -12.6962 -13.828 -13.4578 -10.4395 -8.7475 
-3.818 -1.4985 -5.3745 -4.891 -4.9775 -1.7695 -3.8805 -3.2295 -2.985 -4.6075 -1.7695 -1.4985 -4.1865 -4.241 -4.4165 -4.348 0 
-5.4495 -6.2355 -7.061501 -9.5975 -5.224501 -5.6375 -5.9075 -5.539001 -6.484 -6.2725 -2.7955 -5.177 -7.936501 -6.8265 -7.9805 -4.348 
-10.304 -7.2945 -13.1602 -9.642 -7.718001 -6.411 -7.384 -8.4075 -7.9675 -7.316 -6.5165 -8.515501 -8.363501 -8.007501 -7.9805 
-11.2648 -13.9264 -13.2047 -12.2031 -7.857501 -7.7015 -8.773001 -9.035501 -8.6955 -10.485 -9.998 -8.714001 -9.726001 -8.007501 
-17.8967 -13.9709 -15.7658 -12.3426 -9.272501 -9.011001 -9.488001 -9.4595 -12.0071 -13.9665 -10.4395 -9.958501 -9.726001 
-2.645 -3.2295 -6.144 -4.891 -5.488 -1.7695 -3.6845 -4.6075 -1.7695 -4.1865 -4.241 -4.4165 -3.9665 
-6.2145 -9.084001 -9.338 -11.6438 -5.676001 -4.2695 -8.385 -6.2725 -6.303 -7.936501 -6.8265 -7.6835 
-12.7358 -12.4048 -16.1864 -11.8318 -7.257501 -8.787001 -8.995 -10.4345 -10.4505 -8.363501 -7.692501 
-16.0566 -19.2532 -16.3744 -13.4133 -12.1402 -9.496501 -13.4234 -14.582 -10.8775 -8.436501 
-22.905 -19.4412 -17.9559 -18.296 -12.8497 -13.9119 -17.5709 -15.009 -10.9505 
