-4.759 
n/a 
n/a 
n/a 
n/a 
-4.759 
n/a 
n/a 
n/a 
n/a 
-4.759 
n/a 
n/a 
n/a 
n/a 
-4.759 
n/a 
n/a 
n/a 
n/a 
-2.3615 -2.186 -3.2955 -1.934 -5.8475 -1.756 -7.8275 -3.8195 -5.9035 
-3.5005 -4.348001 -4.2285 -7.2935 -7.102 -9.2155 -12.1316 -9.029 
-6.179 -5.3545 -9.252001 -8.324501 -15.9441 -13.5876 -17.3411 
-7.225 -10.5225 -10.382 -17.8562 -20.3162 -18.7971 
-12.6204 -11.6525 -19.9137 -22.2283 -25.5257 
-3.1495 -4.161 -2.674 -4.6145 -1.7695 -4.4905 -1.4985 -4.2805 
-6.9845 -6.581 -8.280001 -6.4715 -6.267001 -6.5395 -5.4875 
-8.4425 -12.6534 -10.233 -11.6702 -7.554501 -10.9383 
-14.6583 -14.6064 -15.6297 -12.9577 -12.2315 
-16.6113 -20.0031 -16.9172 -17.6347 
-3.1495 -2.4945 -3.2955 -1.934 -6.55 -1.756 -3.3715 -4.5655 -6.9185 0 
-4.459 -4.6305 -4.2285 -8.465501 -7.6245 -4.6545 -8.333501 -12.6646 -6.9185 
-6.706 -5.474 -9.422 -9.5345 -10.068 -9.550501 -16.9514 -12.6646 
-7.587501 -10.5325 -10.5045 -12.0014 -15.2508 -18.723 -16.9514 
-12.7744 -11.615 -12.9714 -17.1842 -24.4233 -18.723 
-3.1495 -4.161 -2.4945 -3.2955 -2.5195 -3.8275 -4.683 -1.7695 -3.983 -3.402 -3.1935 -5.291 -5.7775 0 
-6.9845 -6.052 -4.6305 -5.4525 -6.556 -9.4045 -7.032001 -5.5405 -7.3135 -6.535 -7.2375 -10.932 -5.7775 
-7.744 -7.487 -7.566501 -10.7352 -12.6586 -11.8555 -11.3504 -8.771501 -10.9969 -10.2585 -13.5635 -10.932 
-8.9335 -10.354 -13.2464 -16.8378 -15.1096 -16.1739 -14.5814 -12.9813 -14.7204 -16.5845 -13.5635 
-12.2455 -16.0339 -19.349 -19.2888 -19.428 -19.4049 -18.7912 -16.7048 -21.0464 -16.5845 
