-4.759 
n/a 
n/a 
n/a 
n/a 
-4.759 
n/a 
n/a 
n/a 
n/a 
-4.759 
n/a 
n/a 
n/a 
n/a 
-4.759 
n/a 
n/a 
n/a 
n/a 
-3.7855 0 -3.926 -3.845 -3.602 
-3.7855 -3.926 -8.026001 -7.188001 
-7.871 -8.026001 -12.1062 
-12.4374 -12.1062 
-16.5176 
-3.845 0 -3.4295 -3.319 -3.845 -3.7075 
-3.845 -3.4295 -6.870501 -8.268001 -7.460501 
-7.266001 -6.870501 -12.3589 -12.1741 
-11.7762 -12.3589 -16.265 
-17.2646 -16.265 
-4.4675 0 -3.4295 -3.6205 -3.618 
-4.4675 -3.4295 -6.344 -8.05 
-8.054001 -6.344 -11.6795 
-11.8033 -11.6795 
-17.1388 
-3.717 0 -7.5735 -3.6205 -3.9535 
-3.717 -6.5045 -11.1375 -6.802 
-10.9908 -12.3347 -15.7058 
-16.821 -15.7058 
-20.1921 
