-4.759 
n/a 
n/a 
n/a 
n/a 
-4.759 
n/a 
n/a 
n/a 
n/a 
-4.759 
n/a 
n/a 
n/a 
n/a 
-4.759 
n/a 
n/a 
n/a 
n/a 
-3.6485 -3.7855 -4.194 -4.4715 -1.934 -7.175 
-5.587 -6.129001 -7.6645 -6.052501 -9.215501 
-8.539001 -9.8505 -8.679001 -13.7214 
-12.5881 -10.6375 -16.4925 
-13.3751 -18.451 
-7.175 -3.6485 -3.6035 -3.307 -4.4715 
-11.8641 -6.79 -6.0385 -7.849 
-15.0056 -10.749 -11.6279 
-18.9646 -16.3384 
-24.554 
-10.827 -3.6485 -4.5205 -5.7775 -4.4715 
-14.4755 -9.4785 -9.3485 -9.165501 
-20.3055 -14.4139 -13.4659 
-25.2409 -18.5313 
-29.3583 
-6.4215 -3.6485 -5.9405 -3.845 
-9.807 -9.745501 -10.4345 
-9.8155 -14.6799 
-14.8997 
n/a 
