-4.759 
n/a 
n/a 
n/a 
n/a 
-4.759 
n/a 
n/a 
n/a 
n/a 
-4.759 
n/a 
n/a 
n/a 
n/a 
-4.759 
n/a 
n/a 
n/a 
n/a 
-4.571 -2.7765 -2.489 -4.552 -1.7695 -3.7825 -3.6065 -3.7655 
-8.3555 -3.495 -5.8315 -7.0195 -5.3295 -5.8455 -6.1215 
-8.744 -6.4445 -7.8975 -9.7015 -7.191 -7.7935 
-12.0961 -8.382 -10.442 -11.9586 -9.281 
-14.0336 -10.6085 -12.6991 -14.0486 
-3.0365 -2.4945 -3.7825 -3.535 -7.9055 -1.7565 -7.233 
-3.688 -5.7115 -6.171 -10.862 -8.4335 -9.863001 
-5.8285 -7.134501 -14.2046 -11.39 -16.7254 
-7.142 -15.3571 -14.7326 -19.6819 
-15.3688 -15.8851 -23.0245 
-3.7825 -3.6065 -4.2895 -4.2775 -1.4985 -3.594 -3.759 0 
-5.8455 -6.836 -8.984001 -5.8015 -4.568 -6.1355 -3.759 
-9.2005 -12.0685 -10.26 -8.9755 -7.613501 -6.1355 
-14.5366 -13.3445 -13.434 -9.759001 -7.613501 
-15.8126 -16.5185 -14.2175 -9.759001 
-2.871 -4.609 -5.4345 -2.186 -3.7875 -3.7825 -3.699 -8.462001 0 
-7.681001 -9.300501 -7.679501 -5.4905 -7.041 -7.153 -13.5044 -8.462001 
-12.8367 -11.6347 -9.8715 -9.2705 -10.6469 -17.5026 -13.5044 
-15.1709 -13.8267 -13.8919 -12.8636 -20.9965 -17.5026 
-17.3629 -17.8471 -17.485 -23.2132 -20.9965 
