-4.759 
n/a 
n/a 
n/a 
n/a 
-4.759 
n/a 
n/a 
n/a 
n/a 
-4.759 
n/a 
n/a 
n/a 
n/a 
-4.759 
n/a 
n/a 
n/a 
n/a 
-9.7255 -3.0465 -2.9325 -2.7295 -3.5095 
-12.467 -5.412001 -4.3825 -5.1515 
-15.0235 -6.913001 -6.183 
-16.2675 -8.897 
-18.191 
-7.956 -5.1475 -1.7695 -3.5095 0 
-13.6163 -6.9445 -4.698 -3.5095 
-15.4133 -10.3815 -4.698 
-18.8503 -10.3815 
-18.8503 
-12.1985 -5.1475 -3.8255 -3.5015 
-18.4228 -9.668 -9.1335 
-23.0689 -15.0966 
-28.4975 
n/a 
-10.9265 -4.174 -5.3745 -3.034 -3.998 
-13.3585 -9.481501 -8.318501 -7.8585 
-18.312 -12.6069 -13.2986 
-21.4374 -17.587 
-26.4175 
