-4.759 
n/a 
n/a 
n/a 
n/a 
-4.759 
n/a 
n/a 
n/a 
n/a 
-4.759 
n/a 
n/a 
n/a 
n/a 
-4.759 
n/a 
n/a 
n/a 
n/a 
-4.8315 -3.0365 -2.4945 -5.2695 -5.4085 -1.756 -4.5265 -4.1465 0 -5.4435 -4.1465 0 
-6.4645 -3.688 -9.1695 -10.784 -6.488 -6.728 -11.117 -4.1465 -5.4435 -8.527 -4.1465 
-7.062 -10.2645 -14.9288 -11.8635 -12.0986 -13.4651 -11.117 -8.6815 -8.527 -8.527 
-13.6679 -16.0238 -16.0083 -17.4741 -18.8357 -13.4651 -15.652 -9.0375 -8.527 
-19.4272 -17.1033 -21.6189 -24.2112 -18.8357 -18.0001 -16.008 -9.0375 
-4.8215 -2.3615 0 -3.59 -4.1465 0 -5.4435 -5.4085 -2.4945 -3.074 -3.8825 0 
-6.504001 -2.3615 -3.59 -6.0445 -4.1465 -5.4435 -9.710501 -7.173 -4.4205 -5.971 -3.8825 
-6.504001 -5.0215 -6.0445 -6.0445 -8.6815 -9.710501 -11.534 -8.979501 -6.888 -5.971 
-9.759001 -9.961 -6.0445 -11.9499 -13.6269 -11.534 -13.3405 -11.6456 -6.888 
-14.9483 -9.961 -11.9499 -16.8953 -15.4504 -13.3405 -16.0066 -11.6456 
-4.1485 -2.3615 -3.9675 -1.7565 -5.4085 0 -1.756 -4.291 -4.1465 -3.074 0 
-6.68 -6.633 -5.258 -7.186 -5.4085 -1.756 -6.054 -8.982 -7.726 -3.074 
-11.3291 -7.5065 -10.7595 -7.186 -6.488 -6.054 -10.6465 -13.0117 -7.726 
-12.2026 -13.153 -10.7595 -8.173 -10.451 -10.6465 -14.6762 -13.0117 
-17.8491 -13.153 -11.7465 -12.334 -15.8875 -14.6762 -14.6762 
-3.074 0 -4.235 -4.1465 0 -1.756 -5.0355 -4.1465 -2.4945 -3.9285 
-3.074 -4.235 -8.22 -4.1465 -1.756 -7.0645 -8.526501 -7.334001 -5.071 
-8.43 -8.22 -8.22 -5.6545 -7.0645 -11.2025 -11.9618 -9.649 
-12.796 -8.22 -9.632501 -11.8906 -11.2025 -14.6378 -14.2768 
-12.796 -9.632501 -16.0594 -16.0286 -14.6378 -16.9528 
