-4.759 
n/a 
n/a 
n/a 
n/a 
-4.759 
n/a 
n/a 
n/a 
n/a 
-4.759 
n/a 
n/a 
n/a 
n/a 
-4.759 
n/a 
n/a 
n/a 
n/a 
-1.934 -4.278 -2.543 -3.319 -1.7565 -3.664 -4.37 -2.925 -2.4945 0 -4.0615 0 -4.3035 0 -4.1145 -3.777 0 -3.5025 -3.777 0 
-6.2645 -8.021001 -6.179501 -4.165 -5.2935 -7.9175 -7.468 -3.7675 -2.4945 -4.0615 -4.0615 -4.3035 -4.3035 -4.1145 -8.3325 -3.777 -3.5025 -7.437 -3.777 
-9.84 -11.9981 -7.154 -7.956 -9.321501 -10.749 -8.363001 -3.7675 -7.526 -4.0615 -8.3465 -4.3035 -9.852501 -8.3325 -8.3325 -7.1695 -7.437 -7.437 
-13.8171 -12.9726 -11.3824 -12.1796 -12.141 -11.644 -8.363001 -9.583 -7.526 -8.3465 -8.3465 -9.852501 -14.1303 -8.3325 -12.4938 -9.578001 -7.437 
-14.7916 -17.201 -15.606 -14.9991 -13.036 -11.644 -14.4059 -9.583 -12.9174 -8.3465 -14.3629 -14.1303 -14.1303 -12.4938 -14.9023 -9.578001 
-1.4985 -2.543 -6.1285 -2.5195 -4.1145 -2.4945 0 -4.31 0 -3.925 0 -4.1145 -4.1995 0 -3.16 -3.9885 -3.7495 0 
-5.1495 -10.1725 -8.349001 -7.1055 -7.3835 -2.4945 -4.31 -4.31 -3.925 -3.925 -4.1145 -9.4475 -4.1995 -3.16 -4.5575 -6.3235 -3.7495 
-13.393 -12.5444 -13.4078 -10.533 -7.3835 -7.5405 -4.31 -6.14 -3.925 -8.133 -9.4475 -9.4475 -7.0045 -4.5575 -6.6955 -6.3235 
-15.7649 -17.6032 -16.8353 -10.533 -13.0793 -7.5405 -6.14 -6.14 -8.133 -14.2234 -9.4475 -12.5265 -9.9572 -6.6955 -6.6955 
-20.8237 -21.0307 -16.8353 -16.2288 -13.0793 -9.8479 -6.14 -12.8184 -14.2234 -14.2234 -12.5265 -15.4792 -12.0952 -6.6955 
-4.1145 -4.138 -1.7565 -3.4465 -2.543 -3.319 -1.7565 -3.664 -4.3895 -4.0615 0 -7.245 0 -4.1145 -4.285 -4.1445 0 -1.756 -3.074 -3.432 -3.213 -4.285 -4.1445 
-9.338501 -5.1845 -6.2205 -6.775001 -6.179501 -4.165 -5.2935 -8.282001 -10.2865 -4.0615 -7.245 -7.245 -4.1145 -8.613001 -6.249001 -4.1445 -1.756 -4.566 -7.5065 -6.553 -7.575 -6.249001 
-10.4748 -10.9599 -10.054 -10.5975 -7.154 -7.956 -9.5515 -14.5058 -10.2865 -12.5197 -7.245 -12.1723 -8.613001 -11.4898 -6.249001 -5.476 -4.566 -9.394501 -10.7495 -11.1 -10.4358 
-16.2502 -14.7934 -13.8765 -11.572 -11.3824 -12.4096 -15.9663 -14.5058 -18.7447 -12.5197 -12.1723 -16.6708 -11.4898 -11.4898 -7.5645 -8.2445 -9.394501 -12.7491 -15.2965 -13.9608 
-20.0837 -18.6159 -14.851 -15.8004 -15.836 -18.8244 -15.9663 -22.964 -18.7447 -17.447 -16.6708 -19.5476 -11.4898 -12.8053 -10.361 -13.2852 -12.7491 -17.2961 -18.1573 
-5.028 -3.6285 -4.1145 -3.777 -3.16 -2.9775 -3.777 
-9.257 -8.931001 -8.3325 -6.5975 -4.6715 -7.0105 
-14.7961 -13.5246 -11.9218 -8.7235 -8.1125 
-19.3897 -17.1139 -14.0478 -10.564 
-22.979 -19.2399 -15.8883 
