-4.759 
n/a 
n/a 
n/a 
n/a 
-4.759 
n/a 
n/a 
n/a 
n/a 
-4.759 
n/a 
n/a 
n/a 
n/a 
-4.759 
n/a 
n/a 
n/a 
n/a 
-3.7545 -2.186 -2.3345 -4.374 0 -3.9105 -2.186 -3.074 -2.3345 -4.374 
-4.946 -5.098001 -5.92 -4.374 -3.9105 -5.2625 -4.156 -5.7025 -5.92 
-7.8765 -9.2065 -5.92 -8.555 -5.2625 -8.118001 -7.6495 -9.3855 
-12.1942 -9.2065 -10.078 -10.6215 -8.118001 -11.8541 -11.6603 
-12.1942 -13.4763 -12.1445 -13.477 -11.8541 -15.8649 
-12.16972 -7.7545 -10.738 -7.7545 
-19.92422 -19.4589 -18.9361 
-31.62862 -27.657 
-39.82672 
n/a 
-12.16972 -8.77 -12.16972 -8.77 
-20.93972 -21.17672 -20.93972 
-33.34644 -29.94672 
-42.11644 
n/a 
-10.406 -7.1975 -12.16972 -7.1975 
-18.2719 -19.73782 -19.36722 
-30.81222 -26.93532 
-38.00972 
n/a 
