-4.759 
n/a 
n/a 
n/a 
n/a 
-4.759 
n/a 
n/a 
n/a 
n/a 
-4.759 
n/a 
n/a 
n/a 
n/a 
-4.759 
n/a 
n/a 
n/a 
n/a 
-4.0155 -1.7565 -1.4985 -4.191 -4.2085 -5.204 -2.9645 -3.4635 -2.5045 -1.8085 -4.0165 -5.052 -3.1495 -3.5795 -2.5685 -3.7825 -3.8235 -5.204 0 -2.688 -4.9605 0 -4.793 -5.0625 0 -4.4485 0 -1.756 -4.713 0 -2.5045 -3.3235 -2.5045 -1.4985 -4.623 -4.5685 0 -4.5055 -4.4635 -3.8375 0 -1.756 -4.734 -3.098 -4.887 -1.7565 -4.4485 -2.4945 -4.707 0 -2.8965 -4.957 -3.5795 -4.7315 0 -3.8145 -5.2925 0 -4.6915 -5.2925 0 -1.756 -4.0165 -5.2925 -1.4985 -3.486 -2.186 -1.4985 -4.2605 -2.356 -4.734 0 -3.3155 -2.9905 -1.7565 -3.1435 -3.8285 -5.052 -4.6945 0 -3.589 -2.4945 -4.3215 -2.5045 -1.8085 -3.4635 0 -2.3345 -1.4985 -3.498 -1.7565 -2.7405 0 0 -1.756 -2.8965 -4.957 -3.5795 -4.554 -4.7315 0 -4.8275 -5.2925 0 -3.4865 -3.8195 0 -4.0165 -5.2925 -1.756 -4.293 -4.7315 -5.057 0 -5.1635 -1.756 -5.3135 -1.756 -5.0525 -2.9645 -4.46 -4.957 -4.064 -1.7565 -4.707 0 -1.756 -4.065 -4.1985 -4.078 -4.0165 -4.7315 -3.4635 -2.7765 -2.489 -5.6915 -2.5045 -3.858 -3.4165 -2.4285 -6.0925 0 
-5.764 -2.4195 -5.432 -8.142 -6.5 -8.76 -7.809 -6.2415 -3.3625 -5.437 -8.675501 -8.534 -5.3495 -5.4375 -5.4565 -7.333 -8.910501 -5.204 -2.688 -5.158 -4.9605 -4.793 -5.0905 -5.0625 -4.4485 -4.4485 -1.756 -6.5815 -4.713 -2.5045 -3.7105 -3.8485 -3.583 -5.1705 -8.5255 -4.5685 -4.5055 -5.352 -5.4215 -3.8375 -1.756 -6.746 -8.422001 -7.3265 -5.0995 -5.758501 -7.271 -7.9015 -4.707 -2.8965 -6.7605 -7.638 -8.675501 -4.7315 -3.8145 -7.9395 -5.2925 -4.6915 -8.2735 -5.2925 -1.756 -5.184 -7.9505 -6.8855 -3.5655 -5.8735 -3.339 -4.8355 -6.002501 -7.421 -4.734 -3.3155 -7.454 -3.6185 -4.124 -7.711 -8.949501 -9.666 -4.6945 -3.589 -7.131001 -5.609 -5.2675 -3.3625 -5.6055 -3.4635 -2.3345 -3.233 -4.0295 -4.005 -4.954 -2.7405 0 -1.756 -3.751 -6.7605 -7.638 -7.8555 -7.718501 -4.7315 -4.8275 -8.745501 -5.2925 -3.4865 -6.7165 -3.8195 -4.0165 -7.9505 -6.1835 -5.7905 -7.1235 -9.9865 -5.057 -5.1635 -5.654 -5.666 -7.137501 -6.949 -9.3475 -7.9355 -7.432 -8.561501 -4.3045 -6.319 -4.707 -1.756 -5.8995 -4.864 -8.409 -8.476501 -7.59 -7.5325 -6.938001 -3.495 -7.059 -6.786 -5.837501 -7.890501 -6.6975 -9.060501 -6.0925 
-6.1 -6.104001 -9.121 -8.8735 -9.705001 -10.76 -10.281 -6.9665 -6.647 -9.2805 -12.6579 -10.228 -7.7205 -8.1665 -8.4895 -9.439001 -8.910501 -7.975501 -5.158 -5.158 -6.754 -5.0905 -5.0905 -6.240001 -4.4485 -6.121 -6.5815 -6.5815 -7.4045 -3.7105 -3.8545 -4.654 -7.051001 -8.990001 -8.5255 -8.442 -5.352 -5.4225 -5.4215 -5.325 -6.746 -9.6595 -12.8093 -7.357 -9.358 -8.316501 -12.9652 -7.9015 -7.690001 -6.7605 -8.882 -13.089 -8.675501 -7.224 -7.9395 -7.9395 -9.277 -8.2735 -8.2735 -6.1835 -5.184 -9.044001 -9.6745 -9.3905 -5.91 -7.3545 -6.688 -6.5185 -11.4351 -7.421 -7.5935 -7.454 -7.8265 -6.0655 -8.5445 -13.4474 -14.1101 -9.666 -8.823 -7.131001 -10.3415 -6.4755 -6.076 -7.227 -5.6055 -6.1525 -3.233 -5.098 -4.188 -6.294 -4.954 -2.7405 -1.756 -3.751 -7.8175 -8.882 -12.269 -11.4408 -7.718501 -9.3095 -8.745501 -8.745501 -8.499001 -6.7165 -6.7165 -7.3655 -7.9505 -8.7115 -9.9835 -8.692 -12.6929 -9.9865 -7.323 -5.654 -5.674 -7.6145 -9.264001 -10.0095 -14.4877 -11.5411 -10.7175 -8.6665 -9.123 -6.319 -5.834001 -5.8995 -6.691 -9.2255 -13.4243 -12.2292 -10.6868 -12.007 -7.7145 -7.586501 -7.7315 -9.461 -9.431001 -9.085501 -13.8127 -9.060501 
-7.826 -9.430501 -9.222501 -10.76 -10.7625 -10.7655 -10.631 -9.642 -10.6735 -13.9061 -14.3519 -12.7476 -10.368 -10.647 -11.0577 -9.439001 -11.9742 -8.460001 -5.158 -6.7555 -6.7545 -5.0905 -6.2405 -6.240001 -6.121 -7.0305 -6.5815 -8.5635 -8.1225 -3.8545 -4.6565 -8.6385 -10.404 -8.990001 -12.6994 -8.6035 -5.4225 -5.4225 -7.4305 -9.547 -9.6595 -14.131 -12.8398 -12.1435 -12.1212 -14.1681 -12.9652 -10.6095 -12.1754 -8.882 -14.521 -13.089 -11.6042 -10.4345 -7.9395 -10.688 -10.362 -8.2735 -9.399501 -8.1355 -9.044001 -10.238 -12.1795 -10.544 -7.4645 -9.432 -8.005501 -11.9377 -11.4351 -10.504 -12.0198 -7.8265 -10.757 -10.3675 -14.3645 -18.608 -14.1101 -13.8451 -12.5028 -10.3415 -10.685 -7.821 -9.974501 -7.227 -7.559 -7.2355 -5.098 -5.1255 -6.335001 -6.294 -4.954 -5.1965 -3.751 -7.8175 -10.1622 -13.701 -15.8543 -11.4408 -9.589001 -9.589001 -8.745501 -12.6772 -10.2925 -6.7165 -10.674 -11.9879 -8.7115 -13.0395 -10.19 -14.4502 -12.6929 -12.2525 -8.205 -5.674 -7.633 -9.316 -12.5739 -15.1909 -18.0933 -14.8266 -10.8225 -13.787 -9.123 -7.4505 -10.4765 -6.691 -10.7175 -14.4574 -17.177 -15.326 -15.1613 -12.7835 -12.1754 -8.2045 -10.702 -13.3059 -10.7072 -16.3603 -13.8127 
-10.5525 -9.533001 -10.7605 -10.7655 -10.768 -10.771 -10.79 -10.7615 -15.2991 -15.6001 -16.8715 -15.3951 -12.8485 -13.2152 -11.0577 -12.5933 -12.4587 -8.460001 -6.7555 -6.756001 -6.7545 -6.2405 -6.2405 -8.755001 -7.0305 -7.0305 -8.5635 -8.885 -8.1815 -4.6565 -8.647 -12.2119 -10.404 -13.2637 -12.8609 -8.606501 -5.4225 -7.4325 -9.697001 -12.5245 -14.131 -14.1615 -17.6263 -14.9067 -17.9728 -14.1681 -15.6732 -15.7313 -14.2969 -14.521 -14.521 -16.0177 -14.8147 -10.4345 -10.688 -11.773 -10.362 -9.399501 -11.4185 -10.504 -10.238 -12.743 -13.333 -12.1285 -9.6645 -9.847 -13.5041 -11.9377 -14.5181 -14.9303 -12.3923 -10.757 -15.059 -16.1875 -19.5251 -18.608 -18.2892 -17.5249 -15.7133 -10.685 -12.0305 -11.9927 -9.974501 -9.731001 -8.2285 -8.736501 -5.1255 -6.7445 -6.335001 -6.294 -6.400001 -7.743501 -7.8175 -10.1622 -14.9812 -17.2863 -15.8543 -13.3113 -9.592001 -9.589001 -12.6772 -14.4707 -10.2925 -10.674 -15.2964 -12.7489 -13.0395 -13.246 -15.9482 -14.4502 -14.9589 -13.1345 -8.2255 -7.633 -9.318001 -12.6619 -17.7553 -18.7965 -21.3788 -14.9316 -15.943 -13.787 -9.9205 -12.4978 -11.268 -10.7175 -15.9494 -18.2101 -20.2738 -19.8005 -15.9378 -17.2444 -12.7934 -11.3722 -14.5469 -14.5821 -17.982 -16.3603 
-1.934 -1.4985 -3.158 -5.989 0 -3.4975 -4.02 -4.6805 -1.7565 -3.4975 -4.8625 -1.756 -4.3185 -4.399 -2.0935 -2.7455 -5.1075 -7.3695 -2.1715 -3.748 -3.1385 -3.152 -2.5195 -4.38 -7.140501 -2.4285 -4.1385 -4.399 -1.756 -2.925 -5.5385 -4.7925 -3.748 -3.1385 
-2.6125 -4.178 -9.623501 -5.989 -3.4975 -6.4725 -7.5065 -4.722 -4.91 -5.968 -6.1675 -6.087 -9.422501 -6.488501 -4.987 -6.5655 -10.0445 -10.121 -4.922501 -5.326 -5.219 -5.849 -6.457 -12.7129 -10.533 -6.6235 -8.369501 -5.742 -4.2585 -6.9485 -10.6895 -6.297 -5.326 
-5.265 -9.910501 -9.623501 -9.750501 -6.4725 -10.0315 -7.5575 -8.844 -6.741 -6.8085 -7.1315 -11.9318 -11.5284 -9.951 -7.9355 -13.4375 -12.0635 -11.0715 -6.620501 -6.9915 -8.1715 -9.182501 -15.2383 -16.1054 -14.728 -10.223 -9.6295 -8.399 -8.565001 -11.5741 -12.681 -8.2755 
-10.0125 -9.910501 -13.6882 -12.9549 -10.0315 -10.063 -11.7977 -10.609 -7.5445 -7.138 -15.1429 -14.0377 -14.9909 -12.986 -13.259 -13.239 -12.7725 -11.749 -8.267 -10.6735 -11.6432 -18.3578 -18.6308 -20.3004 -18.3275 -11.483 -12.5935 -12.8381 -13.4594 -14.5218 -15.3532 
-10.0125 -14.2132 -16.8926 -16.5139 -10.063 -14.3032 -13.5627 -11.4125 -7.8485 -15.1634 -17.2488 -17.5002 -18.0259 -19.21 -15.21 -14.9852 -14.4997 -13.3715 -12.1662 -14.1452 -20.8185 -21.7503 -22.8258 -23.8999 -19.5875 -14.447 -17.0326 -17.7325 -16.4071 -16.9048 
-1.934 -3.0105 0 -1.934 -3.4975 -4.02 0 -5.1075 -3.748 -2.186 -3.4635 -1.7695 -3.4975 -4.1865 -2.4285 -2.5195 -4.5735 -4.3185 -2.645 -3.1575 -2.1715 -3.748 -2.4945 -2.5195 -5.569 -3.402 -2.4285 -4.1385 -3.8375 -3.402 0 -4.7925 -3.748 0 0 
-4.827 -3.0105 -1.934 -5.3805 -6.4725 -4.02 -3.66 -5.962501 -6.190001 -5.495 -4.2045 -5.6855 -5.348001 -6.283 -5.113 -6.318501 -8.584 -7.518 -3.72 -4.896501 -4.922501 -6.595 -5.2275 -7.6335 -10.7495 -6.197001 -6.6235 -6.195001 -7.261 -3.402 -3.9945 -6.297 -3.748 0 
-4.827 -5.415 -5.3805 -9.697001 -6.4725 -8.3935 -6.2475 -8.679001 -8.493 -5.549 -7.8085 -7.523 -6.374001 -9.605 -9.384001 -10.9702 -12.9309 -8.4845 -5.190001 -5.9475 -7.7825 -8.845501 -9.729501 -12.8448 -13.5445 -11.0416 -7.573501 -9.986 -7.261 -9.214001 -6.653 -6.653 -3.748 
-6.517 -8.5625 -9.697001 -9.697001 -11.3189 -9.056 -8.640501 -10.9445 -8.498501 -9.742001 -9.076 -9.6265 -10.223 -13.9446 -14.1573 -15.3171 -13.8974 -9.731 -6.252 -8.6435 -10.1765 -13.5255 -15.4246 -15.6398 -18.3891 -11.9916 -12.6355 -9.986 -13.302 -12.0249 -6.653 -6.653 
-10.733 -13.5904 -9.697001 -14.5434 -11.9814 -10.647 -11.0035 -11.009 -12.7849 -11.0095 -11.3037 -12.9683 -14.9166 -18.7179 -18.5042 -16.2836 -15.1439 -10.3635 -8.974001 -11.2387 -14.8565 -19.2206 -18.2196 -20.4844 -19.3391 -17.0536 -12.6355 -16.0494 -16.1129 -12.0249 -6.653 
-1.934 -3.0105 0 -3.4975 -4.02 -2.9995 -3.3755 -3.4975 -4.8625 -2.4285 -4.3185 -3.1385 0 -3.3365 -2.3615 -4.431 -2.674 -5.13 -3.748 -3.499 0 -4.3435 -5.1075 -3.748 -3.6765 -2.925 -2.4945 -2.1715 -3.748 -3.6765 -2.645 -2.3335 -3.277 -5.569 -4.121 -3.873 -2.4285 -4.1385 -3.8375 -2.925 -4.9395 -1.7695 0 -3.3365 -3.1495 -4.3435 -4.7925 -3.748 0 -2.925 -5.015 0 
-4.827 -3.0105 -3.4975 -6.4725 -8.002501 -4.873 -7.286 -5.968 -7.186 -6.3695 -8.394 -3.1385 -3.3365 -6.9475 -7.0345 -8.703501 -7.811 -7.041 -6.1815 -3.499 -4.3435 -7.528 -5.962501 -7.608 -6.353 -3.7675 -5.443 -4.922501 -7.608 -6.667 -5.707 -7.4175 -10.0965 -11.6126 -7.6815 -5.879 -6.6235 -6.195001 -6.9795 -5.837 -5.127501 -1.7695 -3.3365 -7.8745 -7.804501 -9.406 -6.297 -3.748 -2.925 -6.637 -5.015 
-4.827 -6.205 -6.4725 -10.218 -9.989 -8.3935 -9.512001 -7.754001 -7.8825 -11.8416 -8.394 -7.1515 -6.9475 -11.9725 -11.6422 -15.017 -10.72 -9.449 -6.1815 -8.162001 -7.953 -10.5405 -10.1645 -10.8909 -7.121 -6.816501 -8.106001 -8.9455 -11.2049 -9.799001 -10.459 -14.1674 -15.7665 -15.1731 -10.0575 -10.733 -7.573501 -9.801001 -10.575 -6.4585 -5.127501 -5.298 -7.8745 -12.7961 -12.0966 -11.1765 -6.653 -7.102 -6.637 -6.637 
-8.172501 -10.2262 -10.218 -12.6211 -13.7679 -11.9231 -11.5666 -7.891001 -15.4662 -11.8416 -12.6158 -11.4267 -11.9725 -16.5802 -17.9557 -15.7355 -12.1295 -9.224001 -9.7845 -12.1622 -8.2025 -12.0545 -13.5708 -11.6589 -10.4105 -10.228 -12.3174 -12.7238 -14.3369 -14.5874 -17.2089 -19.8374 -19.327 -17.5491 -14.9115 -11.683 -12.4505 -13.4273 -10.6655 -6.4585 -9.6715 -9.885 -12.7961 -17.0882 -12.9321 -9.3535 -10.459 -10.674 -6.637 
-12.5311 -13.9717 -12.6211 -16.4 -17.2975 -13.9777 -11.7036 -15.9357 -15.4662 -16.0634 -16.891 -16.4517 -16.5802 -22.8937 -18.6742 -18.8918 -12.5883 -13.321 -13.9237 -12.4117 -12.3499 -15.8212 -14.3388 -14.9484 -13.822 -14.4394 -16.0957 -15.8558 -19.1253 -21.3373 -22.8789 -23.3979 -21.703 -22.4031 -15.8615 -16.56 -16.0768 -13.5178 -10.6655 -11.0865 -14.4107 -14.8108 -17.0882 -17.9237 -12.9321 -13.2123 -14.1092 -10.674 
