-4.759 
n/a 
n/a 
n/a 
n/a 
-4.759 
n/a 
n/a 
n/a 
n/a 
-4.759 
n/a 
n/a 
n/a 
n/a 
-4.759 
n/a 
n/a 
n/a 
n/a 
-2.5195 -5.804 -2.543 -1.7695 -4.732 -2.789 -4.153 
-7.2555 -6.4725 -5.0895 -7.101501 -7.1825 -8.2165 
-10.1175 -9.389501 -11.0805 -10.0794 -13.5444 
-13.0035 -16.141 -14.0584 -16.4413 
-19.4941 -19.1865 -20.4203 
-2.5195 -2.543 -4.747 -3.5725 -2.789 -4.153 -4.747 
-5.395 -7.528501 -7.787001 -7.769001 -8.2165 -8.8465 
-10.2595 -11.6455 -14.4341 -13.4585 -11.2065 
-15.4228 -17.0492 -20.0844 -16.4485 
-20.6487 -22.7387 -23.0744 
-2.5195 -4.4175 -2.543 -1.7695 -4.711 -4.153 
-7.040501 -6.9455 -5.0895 -7.0765 -6.8605 
-10.001 -10.071 -10.281 -8.8105 
-13.2361 -15.3505 -12.1826 
-18.5156 -17.2521 
-2.5195 -4.4485 -4.747 -1.7695 -4.711 -4.153 
-7.173 -10.091 -7.198501 -7.0765 -6.8605 
-12.8614 -12.0785 -12.8702 -8.8105 
-15.6026 -17.9885 -14.8968 
-21.4954 -19.7225 
