-4.759 
n/a 
n/a 
n/a 
n/a 
-4.759 
n/a 
n/a 
n/a 
n/a 
-4.759 
n/a 
n/a 
n/a 
n/a 
-4.759 
n/a 
n/a 
n/a 
n/a 
-2.9805 -2.186 -1.4985 -4.834 -5.408 -6.0655 -3.8385 
-4.1635 -3.339 -5.5435 -8.511001 -12.5775 -10.8415 
-5.312 -6.8705 -8.889501 -16.0721 -17.3535 
-8.975 -10.1465 -16.6464 -20.8481 
-12.7768 -17.9034 -21.4224 
-2.9805 -2.186 -1.4985 -3.098 -3.6385 -3.0695 -3.7905 -1.8085 -3.5435 -4.2245 -1.934 -1.8085 -3.809 -3.7515 0 
-4.1635 -3.339 -4.123 -6.662 -4.965 -6.437 -4.255 -5.2635 -7.4475 -4.929 -3.2685 -4.9205 -5.9905 -3.7515 
-5.312 -4.9155 -6.7565 -7.3945 -9.7165 -8.2085 -8.0935 -8.507501 -8.611 -7.0795 -6.847001 -6.2305 -5.9905 
-6.592 -7.473001 -7.4065 -12.8844 -10.3985 -12.1998 -11.6947 -9.643001 -10.5035 -10.1585 -9.171 -6.2305 
-8.135501 -7.892 -12.917 -13.5664 -14.3898 -15.801 -12.8302 -11.3203 -13.5825 -12.4825 -9.171 
-2.9805 -2.186 -1.4985 -3.809 -3.9725 -1.934 -1.4985 -3.188 
-4.1635 -3.339 -4.9045 -7.180501 -6.144 -2.6125 -3.619 
-5.312 -7.2125 -7.343 -9.057501 -6.831 -4.377 
-8.860001 -9.935 -9.173 -9.745501 -8.6645 
-11.7633 -11.8996 -9.870001 -11.579 
-2.9805 -2.7415 -1.4985 -3.188 -2.229 -5.408 -3.9725 -5.671 -1.934 -5.016 0 
-4.004 -4.063 -3.619 -4.279 -6.5525 -8.574 -8.496 -7.2285 -6.8535 -5.016 
-5.390501 -6.758 -4.3695 -7.441501 -8.707001 -10.1345 -9.608001 -10.5975 -6.8535 
-8.1765 -6.9775 -7.606501 -8.713 -10.66 -10.74 -10.6625 -10.5975 
-8.38 -9.736501 -9.014501 -10.66 -10.7555 -10.7665 -10.6625 
