-4.759 
n/a 
n/a 
n/a 
n/a 
-4.759 
n/a 
n/a 
n/a 
n/a 
-4.759 
n/a 
n/a 
n/a 
n/a 
-4.759 
n/a 
n/a 
n/a 
n/a 
-5.0115 -2.186 -4.06 -1.934 -1.4985 -7.295501 -4.1355 -1.7565 -3.691 
-7.4925 -4.672 -4.483 -2.6125 -6.2365 -9.1675 -6.009501 -4.930501 
-9.509001 -5.13 -4.937 -6.706 -9.794001 -9.896001 -8.692501 
-9.615001 -5.522 -8.063001 -9.738001 -9.842001 -12.4437 
-10.964 -8.429501 -11.8155 -10.523 -12.4399 
-5.0115 -2.186 -4.06 -1.934 -3.691 -2.5045 -3.5455 -3.75 -3.7575 0 
-7.4925 -4.672 -4.483 -4.8225 -6.358 -5.878 -5.228001 -5.4685 -3.7575 
-9.509001 -5.13 -7.201001 -7.1555 -10.1425 -7.728001 -7.774501 -5.4685 
-9.615001 -8.370501 -9.734001 -11.2742 -12.1075 -10.367 -7.774501 
-13.8125 -10.451 -13.9843 -13.2392 -14.7465 -10.367 
-5.0115 -2.186 -4.99 -1.934 -1.4985 -3.5455 -3.75 -4.1355 -1.7565 -3.691 
-7.4925 -5.502 -5.477 -2.6125 -4.554 -5.228001 -7.6895 -6.009501 -4.930501 
-10.147 -5.947001 -5.791 -5.298 -5.962 -9.06 -8.5255 -8.692501 
-10.3295 -6.245 -7.425 -6.3795 -9.3205 -9.581501 -11.3877 
-10.8681 -7.9445 -7.809 -10.218 -9.625501 -12.3959 
-5.0115 -2.186 -4.8115 -4.207 0 
-7.4925 -7.794001 -7.8675 -4.207 
-13.4583 -11.4758 -7.8675 
-17.1401 -11.4758 
-17.1401 
