-4.759 
n/a 
n/a 
n/a 
n/a 
-4.759 
n/a 
n/a 
n/a 
n/a 
-4.759 
n/a 
n/a 
n/a 
n/a 
-4.759 
n/a 
n/a 
n/a 
n/a 
-3.6595 0 0 -3.158 0 -2.645 -3.6885 -3.8195 -2.4265 -4.4615 -1.4985 -3.158 -1.934 -2.9705 -3.6885 -2.7415 -1.4985 -3.8195 -3.0835 -4.0925 
-3.6595 0 -3.158 -3.158 -2.645 -6.4135 -6.808001 -6.257 -6.2145 -5.238 -4.178 -4.7985 -4.051 -6.587501 -6.3815 -4.063 -4.771 -6.905001 -6.3575 
-3.6595 -3.158 -3.158 -5.8945 -6.4135 -10.7162 -9.005 -10.543 -6.9125 -7.8685 -5.614 -5.8745 -7.465001 -8.719 -7.896 -7.5835 -8.073 -9.4025 
-7.901 -3.158 -5.8945 -10.2934 -10.7162 -12.9132 -13.5112 -11.241 -9.9125 -8.843 -6.305 -10.733 -9.197001 -9.6945 -11.6289 -11.1949 -10.4675 
-7.901 -5.8945 -10.2934 -14.5961 -12.9132 -17.4194 -14.2092 -14.241 -10.1845 -8.899 -11.3919 -12.465 -9.989 -13.6126 -15.2403 -13.5894 
-6.879 0 0 -3.158 0 -4.0725 -3.4075 -3.8195 0 -2.3335 -4.4155 -1.4985 -3.158 
-6.879 0 -3.158 -3.158 -4.0725 -6.1775 -6.464001 -3.8195 -2.3335 -7.029 -5.773 -4.178 
-6.879 -3.158 -3.158 -7.21 -6.1775 -10.218 -6.464001 -5.9285 -7.029 -7.928501 -9.195001 
-10.5072 -3.158 -7.21 -9.163 -10.218 -10.218 -10.3568 -11.2948 -7.928501 -11.4261 
-10.5072 -7.21 -9.163 -13.8141 -10.218 -14.1108 -15.7231 -12.1943 -11.4261 
-3.6595 0 0 -3.158 0 -2.186 -1.8085 -4.0725 -3.6885 -3.8195 -3.0415 -2.7295 -4.115 -1.934 -2.9705 -3.6885 -2.3335 -3.8195 -3.793 -3.0835 0 -2.7295 -3.429 -2.3335 -3.158 0 
-3.6595 0 -3.158 -3.158 -2.186 -3.164 -5.054 -6.2185 -6.808001 -6.7795 -4.5875 -5.421 -6.0955 -4.051 -6.587501 -5.727 -6.500501 -7.842 -7.251 -3.0835 -2.7295 -5.087 -5.533 -5.421 -3.158 
-3.6595 -3.158 -3.158 -5.3735 -3.164 -5.964 -7.553 -8.938001 -9.906 -8.251 -7.857501 -7.3865 -8.8905 -7.465001 -9.5495 -10.5325 -10.233 -12.097 -7.251 -5.588 -5.087 -7.255 -9.221001 -5.421 
-7.901 -3.158 -5.3735 -6.522 -5.964 -8.384501 -10.7513 -13.3608 -11.4533 -11.6324 -10.19 -9.974501 -12.3809 -10.621 -14.5568 -14.265 -14.598 -12.097 -10.038 -7.6265 -7.255 -11.3136 -9.221001 
-7.901 -5.3735 -6.522 -9.842001 -8.384501 -11.9198 -15.1741 -14.9081 -14.8347 -13.9649 -12.778 -13.5719 -15.5369 -15.6283 -18.2893 -18.63 -14.598 -14.884 -12.1947 -10.597 -11.3136 -11.3136 
-3.6595 0 -6.4475 -2.186 -1.4985 -3.7955 -2.9705 -4.0925 -1.934 -6.798501 -4.2915 
-3.6595 -6.4475 -8.866 -3.339 -4.78 -6.6265 -7.137 -5.2985 -8.312 -9.514501 
-11.054 -8.866 -9.512 -7.004 -7.097 -10.181 -8.679501 -12.8209 -10.19 
-13.4725 -9.512 -13.2036 -9.29 -10.621 -10.54 -16.4847 -14.6989 
-14.1185 -13.2036 -15.4896 -12.8238 -10.98 -18.3452 -18.3627 
