-4.759 
n/a 
n/a 
n/a 
n/a 
-4.759 
n/a 
n/a 
n/a 
n/a 
-4.759 
n/a 
n/a 
n/a 
n/a 
-4.759 
n/a 
n/a 
n/a 
n/a 
-4.344 -3.8985 0 -7.998 -1.7565 -4.0535 0 
-9.029001 -3.8985 -7.998 -8.778 -5.79 -4.0535 
-9.029001 -12.5445 -8.778 -12.8395 -5.79 
-17.9538 -13.3245 -12.8395 -12.8395 
-18.7338 -17.386 -12.8395 
-4.0105 -4.867 0 -3.5965 -3.5125 
-9.665001 -4.867 -3.5965 -6.8095 
-9.665001 -8.874001 -6.8095 
-13.8516 -12.6172 
-17.5948 
-4.584 0 -3.5125 -1.7565 -7.1215 
-4.584 -3.5125 -4.312 -8.907001 
-8.0255 -4.312 -12.0047 
-8.445001 -12.0047 
-16.9107 
-3.0835 -4.867 0 -5.31 -5.7775 -3.5125 
-7.389 -4.867 -5.31 -12.2161 -9.870001 
-7.389 -11.117 -12.2161 -16.3086 
-14.0706 -18.0231 -16.3086 
-20.9767 -22.1156 
