-4.759 
n/a 
n/a 
n/a 
n/a 
-4.759 
n/a 
n/a 
n/a 
n/a 
-4.759 
n/a 
n/a 
n/a 
n/a 
-4.759 
n/a 
n/a 
n/a 
n/a 
-2.925 -2.674 -3.0435 -4.0925 -2.356 -5.731 -1.756 -5.3875 0 
-4.1785 -6.7825 -6.6385 -5.508 -8.316501 -6.649001 -6.881001 -5.3875 
-8.280001 -8.8945 -7.550001 -10.503 -9.012 -7.145 -6.881001 
-10.119 -9.0615 -12.7304 -11.1985 -9.954 -7.145 
-10.492 -14.4435 -13.4259 -12.1405 -9.954 
-2.925 -2.4945 -2.674 -3.0435 -2.356 -2.8965 -3.959 0 
-3.7675 -6.7615 -6.7825 -5.1645 -4.4085 -4.940001 -3.959 
-7.626501 -11.0684 -8.2955 -7.5585 -6.539001 -4.940001 
-12.0314 -12.5814 -10.6335 -9.014 -6.539001 
-13.5444 -14.9194 -12.089 -9.014 
-3.5455 -3.45 -3.8405 -2.925 -3.251 -3.891 -4.383 -2.356 -4.6805 -3.115 -7.8195 0 -7.7095 
-6.138 -8.757 -6.55 -4.617 -8.0065 -6.6745 -6.001 -7.231 -8.121 -11.08 -7.8195 -7.7095 
-9.613501 -11.5291 -8.2185 -9.4055 -11.1292 -8.194501 -11.6048 -10.634 -16.1568 -11.08 -16.164 
-12.427 -13.1976 -13.0996 -12.579 -12.6492 -14.1703 -15.0078 -18.6698 -16.1568 -19.4245 
-14.0955 -18.0787 -16.2731 -14.099 -18.625 -17.5733 -23.0436 -18.6698 -24.5013 
-2.264 -2.3335 -3.8405 -3.1495 -5.6655 -3.43 -1.8085 -3.8355 -3.5035 -2.356 -4.511 -1.756 -4.6845 -5.228 -2.229 0 
-4.6785 -5.7085 -6.721 -7.9785 -8.608 -4.6595 -5.4305 -7.5725 -5.7745 -6.944 -5.8965 -6.4145 -8.897501 -6.112 -2.229 
-8.290501 -8.3715 -11.8314 -11.1326 -9.861 -7.933001 -9.212 -9.135501 -10.5645 -8.068501 -9.333501 -11.0275 -10.0673 -6.112 
-11.2009 -13.5999 -14.9855 -12.3856 -13.2267 -12.3023 -10.287 -14.1071 -11.689 -11.6643 -13.9815 -12.1973 -10.0673 
-16.4293 -16.754 -16.2385 -15.7513 -17.596 -13.3773 -15.2586 -15.2316 -15.2848 -16.3123 -15.1513 -12.1973 
