-4.759 
n/a 
n/a 
n/a 
n/a 
-4.759 
n/a 
n/a 
n/a 
n/a 
-4.759 
n/a 
n/a 
n/a 
n/a 
-4.759 
n/a 
n/a 
n/a 
n/a 
-2.925 -2.674 -1.8085 -4.043 -3.9675 0 
-4.1785 -3.63 -4.668 -6.966001 -3.9675 
-5.191 -6.2515 -7.6615 -6.966001 
-7.6945 -8.8885 -7.6615 
-9.889001 -8.8885 
-2.674 -3.7555 -1.8085 -3.723 -3.5205 -3.9675 
-5.5365 -4.597 -4.9425 -9.076501 -6.692 
-6.483 -8.3985 -10.7495 -12.6346 
-10.025 -14.3069 -14.3076 
-15.9334 -17.865 
-4.8275 -3.9675 -2.186 -4.3895 -2.3345 -4.0215 0 
-8.9755 -5.881001 -5.817 -4.6785 -6.124001 -4.0215 
-11.3794 -9.776001 -5.9315 -8.334001 -6.124001 
-15.2744 -9.8905 -9.753501 -8.334001 
-15.3889 -13.7753 -9.753501 
-2.925 -2.674 -1.8085 -4.043 -4.77 -1.756 -3.9675 
-4.1785 -3.63 -4.668 -8.070001 -5.909 -4.942 
-5.191 -6.2515 -8.521501 -9.289001 -7.526 
-7.6945 -9.8435 -9.786 -10.0785 
-11.4573 -11.2662 -10.6495 
