-4.759 
n/a 
n/a 
n/a 
n/a 
-4.759 
n/a 
n/a 
n/a 
n/a 
-4.759 
n/a 
n/a 
n/a 
n/a 
-4.759 
n/a 
n/a 
n/a 
n/a 
-6.557 0 -4.154 -6.557 -3.4605 
-6.557 -4.154 -11.6408 -10.1075 
-11.136 -11.6408 -15.1913 
-18.6228 -15.1913 
-22.1733 
-5.1845 -5.74 0 -3.915 -3.4605 -1.7565 -5.1845 -5.74 
-5.7465 -5.74 -3.915 -5.1545 -5.245501 -6.580501 -5.7465 
-5.7465 -10.304 -5.1545 -5.7 -9.3915 -6.961501 
-10.316 -11.5435 -5.7 -9.4335 -10.0655 
-11.5555 -12.089 -9.4335 -10.1555 
-6.557 -3.4605 -2.0935 -6.557 
-10.1075 -5.0435 -8.872001 
-11.6905 -10.634 
-17.281 
n/a 
-6.557 
n/a 
n/a 
n/a 
n/a 
