-4.759 
n/a 
n/a 
n/a 
n/a 
-4.759 
n/a 
n/a 
n/a 
n/a 
-4.759 
n/a 
n/a 
n/a 
n/a 
-4.759 
n/a 
n/a 
n/a 
n/a 
-2.9905 -1.7565 -5.7465 -2.5045 -10.462 -3.0365 -2.7415 -1.8085 -4.889 -4.9635 -1.934 -2.9705 -2.7625 -4.269 -3.5005 -1.8085 -4.0415 -4.1445 -2.7415 -4.19 -1.756 -3.13 -3.152 -4.874 -3.5005 -2.6615 -6.126 0 
-3.6185 -7.118001 -8.272501 -13.6615 -13.7791 -4.2225 -3.891 -5.919001 -7.245001 -6.2305 -4.051 -7.276501 -6.860001 -6.612 -4.786 -5.514 -6.2765 -6.3995 -6.03 -5.6195 -5.729 -7.0415 -6.21 -7.660501 -6.662001 -9.102 -6.126 
-8.991001 -9.429501 -19.7689 -16.9786 -14.9651 -4.725 -7.6175 -7.916 -7.934 -8.564 -8.262501 -10.3475 -9.142 -7.9025 -8.485001 -7.4905 -8.732 -9.080501 -6.9525 -9.0915 -7.901501 -9.409 -8.1 -9.6815 -13.5715 -9.102 
-11.4161 -21.0579 -23.086 -18.1646 -15.4676 -8.101501 -9.67 -8.475 -10.228 -12.8833 -10.4425 -12.6295 -9.885501 -12.0487 -10.504 -9.3995 -11.5164 -10.477 -10.8877 -10.7335 -9.7335 -11.3892 -9.797001 -16.9144 -13.5715 
-23.0445 -24.375 -24.272 -18.6671 -18.8441 -9.891001 -10.183 -10.9474 -14.5473 -15.0633 -12.7245 -13.373 -14.6851 -14.0677 -12.413 -12.2267 -12.9129 -14.4122 -12.5297 -12.5655 -11.7561 -13.0862 -17.1641 -16.9144 
-3.5195 -3.279 -12.16972 -3.355 -1.7565 -5.7465 -3.152 -5.3205 -3.152 -5.036 -2.9705 -4.493 -4.0415 -4.1445 -3.5005 -4.3735 -3.1385 -1.756 -2.6615 -4.0415 -4.744 -3.9485 -2.356 -3.13 -3.1385 -4.874 0 
-5.566 -16.01452 -15.52472 -3.725 -7.118001 -8.919001 -8.355 -7.047 -6.5655 -8.338501 -6.708 -8.554501 -6.2765 -7.605 -7.02 -6.557 -4.6325 -5.0565 -7.288501 -7.719501 -8.029 -4.311 -6.2295 -6.554 -6.954 -4.874 
-19.55812 -19.36952 -15.89472 -9.484 -9.826 -14.1578 -10.674 -8.573 -10.019 -10.6215 -11.4327 -11.3765 -10.143 -11.6117 -9.552 -7.725 -8.325001 -9.545501 -11.4877 -11.2945 -8.317 -8.215501 -8.918 -9.321001 -6.954 
-22.91312 -19.73952 -21.65372 -12.3656 -15.0648 -16.4768 -12.2 -12.5999 -12.302 -15.3462 -14.2547 -15.243 -14.2809 -14.1437 -11.1636 -11.9649 -13.1354 -13.9503 -15.0627 -11.5825 -12.4091 -9.681001 -12.0176 -9.321001 
-23.28312 -25.49852 -24.53532 -17.6044 -17.3838 -18.0028 -16.2269 -14.8829 -17.0267 -18.1682 -18.1212 -19.3809 -16.8129 -15.7553 -15.4035 -16.7753 -17.5402 -17.5253 -15.3507 -15.6746 -13.8746 -13.4974 -12.0176 
-8.0395 -3.279 -1.934 -1.4985 -4.889 -4.299 -1.7565 -10.5895 0 -4.7885 -3.892 -1.7565 -9.609501 0 -2.871 -4.0415 -3.6765 -3.5005 -2.7625 -3.769 -2.4945 -4.493 -1.756 -3.13 -4.0415 -4.269 -2.4945 -4.874 0 
-10.523 -5.9255 -2.6125 -5.8525 -6.702001 -5.794001 -13.2952 -10.5895 -4.7885 -7.573501 -5.131001 -12.3152 -9.609501 -2.871 -7.427 -7.5245 -6.448 -6.9795 -6.767 -5.245 -6.256001 -5.8585 -5.729 -7.811501 -7.9375 -6.0385 -6.554 -4.874 
-13.1695 -6.7105 -7.543 -8.106001 -9.311001 -18.3297 -13.2952 -15.8204 -7.573501 -8.097 -16.3377 -12.3152 -12.7505 -7.427 -9.5745 -10.543 -10.523 -11.3252 -9.027 -8.5425 -7.33 -8.546 -9.797501 -12.1511 -9.527 -8.7805 -6.554 
-13.9545 -11.925 -9.0555 -10.176 -21.5749 -18.3297 -18.5261 -18.6054 -8.097 -19.9107 -16.3377 -15.4562 -17.3065 -9.5745 -12.7964 -14.9978 -14.8687 -13.5852 -12.5331 -10.0125 -10.4675 -13.6441 -14.4483 -13.7406 -12.6222 -8.7805 
-19.169 -13.4375 -11.1849 -22.4399 -21.5749 -23.5606 -21.3111 -19.1289 -19.9107 -19.9107 -19.4787 -20.0122 -19.454 -12.7964 -17.2512 -19.3435 -17.1287 -17.0913 -14.0031 -13.15 -15.5656 -18.2949 -16.0378 -16.8358 -12.6222 
-3.5195 -3.279 0 -1.934 -1.8085 -4.889 -4.8115 -2.264 -1.4985 -5.9245 -1.7565 -5.7465 0 -1.934 -10.462 -3.4425 0 -4.3735 -6.867 -3.152 -4.493 -3.5005 -1.8085 -4.0415 -4.1445 -1.756 -2.6615 -4.257 -4.269 -4.493 -1.756 -3.13 -4.874 0 
-5.566 -3.279 -1.934 -3.2685 -5.919001 -6.759501 -6.8605 -2.9195 -6.068001 -6.059 -7.118001 -5.7465 -1.934 -13.4024 -14.1851 -3.4425 -4.3735 -12.2267 -9.97 -5.593 -7.3945 -4.786 -5.514 -6.2765 -5.476 -5.0565 -7.5675 -9.1505 -7.4075 -5.8585 -5.729 -8.55 -4.874 
-5.566 -5.9255 -3.2685 -7.381001 -7.55 -8.4995 -7.666 -6.2075 -6.1105 -9.214001 -7.118001 -7.814501 -13.4024 -17.1255 -14.1851 -8.1145 -12.2267 -15.3297 -12.411 -7.665 -8.419001 -8.485001 -7.4905 -7.875 -9.1125 -9.794001 -12.8914 -12.664 -8.4115 -8.546 -9.2405 -8.55 
-8.641001 -7.476 -7.381001 -8.0705 -8.9235 -9.229501 -9.7325 -6.2425 -9.2545 -9.214001 -8.739 -19.7279 -17.1255 -17.1255 -18.8571 -16.0909 -15.3297 -17.7707 -14.483 -8.592001 -12.5466 -10.504 -8.491 -11.8041 -14.1304 -15.1671 -16.4049 -13.668 -11.4388 -9.445001 -9.2405 
-9.908501 -11.8519 -8.0705 -9.316501 -9.840501 -10.0265 -9.735001 -9.404 -9.2545 -10.6105 -20.8042 -23.451 -17.1255 -21.7975 -26.8335 -19.1939 -17.7707 -19.8427 -15.41 -12.8094 -14.5656 -11.5045 -12.5801 -16.822 -19.5035 -18.6806 -17.4089 -16.6953 -12.3378 -9.445001 
