-4.759 
n/a 
n/a 
n/a 
n/a 
-4.759 
n/a 
n/a 
n/a 
n/a 
-4.759 
n/a 
n/a 
n/a 
n/a 
-4.759 
n/a 
n/a 
n/a 
n/a 
-3.2615 -3.908 -2.5195 -4.354 -2.9805 -4.4605 -6.629 -2.229 -4.1975 -3.7955 -7.7285 -7.0445 0 
-7.6835 -5.9345 -6.514 -6.7085 -6.009501 -12.0247 -7.7995 -6.3225 -7.620501 -9.64 -9.434 -7.0445 
-10.3304 -10.634 -8.594501 -9.964001 -14.2343 -13.1952 -12.8554 -9.943001 -14.0682 -11.3867 -9.434 
-15.0299 -12.7145 -12.0616 -18.3602 -15.4048 -18.2511 -16.4759 -16.4669 -15.8149 -11.3867 
-17.1104 -16.1816 -20.4578 -19.5307 -20.4607 -21.8716 -22.9998 -18.2136 -15.8149 
-3.2615 -2.9705 -2.9805 -5.227 -1.8085 -4.0865 -3.7955 -3.849 -8.06 -7.0445 -2.3345 -6.629 
-5.671 -4.783 -6.5845 -7.705501 -5.535 -6.9865 -6.8365 -11.117 -10.8415 -9.7925 -8.6645 
-6.7555 -8.231501 -8.9135 -11.9418 -7.989501 -9.771 -14.3277 -13.8985 -13.5895 -16.1225 
-10.0275 -10.199 -13.2824 -14.3963 -10.138 -17.2932 -17.1092 -16.6465 -19.9195 
-12.2164 -14.5679 -15.7369 -16.5448 -17.7458 -20.0747 -19.8572 -22.9765 
-3.321 0 -3.685 -9.251 -10.377 -3.8195 -8.2025 -7.0445 
-3.321 -3.685 -14.148 -19.9634 -14.1965 -10.8215 -10.598 
-6.976501 -14.148 -24.8604 -23.7829 -21.1985 -13.217 
-18.2427 -24.8604 -28.6799 -30.7849 -23.594 
-28.9551 -28.6799 -35.6819 -33.1804 
-3.2615 -2.3335 -5.227 -1.934 -5.3475 -3.7955 -1.7565 -7.7285 -7.0445 -2.356 -6.629 -3.819 
-5.0495 -7.361 -6.109 -8.571 -10.75 -6.0895 -9.9455 -9.434 -9.8465 -8.512501 -10.093 
-10.4998 -8.649 -13.7392 -14.1519 -13.044 -15.0919 -11.651 -12.5072 -16.0088 -13.0413 
-11.7878 -16.3042 -19.3201 -16.4459 -22.0464 -16.7974 -14.7242 -18.6695 -20.5376 
-19.443 -21.8851 -21.6141 -25.4483 -23.7519 -19.8706 -20.8865 -23.1983 
