-4.759 
n/a 
n/a 
n/a 
n/a 
-4.759 
n/a 
n/a 
n/a 
n/a 
-4.759 
n/a 
n/a 
n/a 
n/a 
-4.759 
n/a 
n/a 
n/a 
n/a 
-1.4985 -8.653501 -3.251 -3.9535 -1.7695 -3.9075 -2.356 -11.538 -2.229 -5.172 0 
-11.2458 -12.4703 -6.0795 -5.098001 -4.7445 -5.3505 -11.3785 -11.0475 -6.7675 -5.172 
-15.0626 -15.2988 -6.8255 -7.256001 -5.8915 -13.6969 -13.5104 -15.8774 -6.7675 
-17.8911 -16.0448 -9.323501 -8.745501 -14.3803 -15.7548 -18.1153 -15.8774 
-18.6371 -18.5428 -10.8008 -17.5183 -16.4166 -20.3597 -18.1153 
-1.4985 -4.891 -3.152 -4.077 -1.934 -4.241 -4.431 -2.356 -7.1975 -2.229 -3.5435 0 
-5.891001 -7.253 -5.8555 -4.43 -5.605 -6.247 -5.429 -9.385 -8.995001 -5.054 -3.5435 
-7.493001 -10.007 -6.017 -8.058001 -7.771 -7.204 -13.287 -11.2767 -10.2815 -5.054 
-10.5035 -10.0795 -9.93 -9.1925 -8.434001 -16.1212 -15.1787 -12.5632 -10.2815 
-10.5585 -14.0793 -11.1157 -9.8085 -17.516 -18.0129 -16.4652 -12.5632 
-4.891 -3.251 -5.037 -1.934 -1.4985 -3.7535 -2.356 -7.1975 -3.5435 0 
-7.578501 -6.765 -5.1315 -2.6125 -4.9135 -5.7045 -9.385 -10.131 -3.5435 
-11.3337 -6.834001 -5.5325 -5.9875 -6.9095 -13.2667 -12.4127 -10.131 
-11.4027 -7.251 -7.892 -8.001 -14.8353 -16.2944 -12.4127 
-11.8197 -9.838 -9.568001 -16.0474 -17.863 -16.2944 
-2.356 -12.16972 -6.0655 -4.891 -4.463 
-15.43652 -18.23522 -11.8491 -10.3965 
-21.50202 -24.01882 -17.3546 
-27.28562 -29.52432 
-32.79112 
