-4.759 
n/a 
n/a 
n/a 
n/a 
-4.759 
n/a 
n/a 
n/a 
n/a 
-4.759 
n/a 
n/a 
n/a 
n/a 
-4.759 
n/a 
n/a 
n/a 
n/a 
-2.3615 -4.2995 -2.742 -4.2615 -3.7075 -2.4285 -4.4515 -1.934 -2.341 -3.8315 0 -2.9705 -3.837 -2.791 -3.7075 -1.756 -4.4515 -1.934 -3.486 -3.4905 
-6.233 -6.715 -5.956 -8.751501 -6.3465 -7.304 -6.223001 -4.9255 -5.465 -3.8315 -2.9705 -5.8435 -6.028501 -7.13 -5.318 -6.289 -6.223001 -5.8505 -5.894 
-7.81 -9.7065 -11.006 -11.8835 -7.631001 -8.771501 -9.547501 -6.764501 -5.465 -6.798501 -5.8435 -8.0895 -11.5965 -9.508 -6.5745 -7.9615 -10.2645 -8.776501 
-10.749 -14.9177 -14.138 -13.168 -9.3135 -12.4562 -11.6675 -6.764501 -8.5305 -9.507001 -8.0895 -13.8071 -13.9745 -10.2345 -8.2285 -12.2514 -13.3817 
-15.9602 -18.0497 -15.4225 -14.8505 -13.0514 -14.5762 -11.6675 -10.0035 -11.4678 -11.8942 -13.8071 -16.1851 -14.701 -12.0927 -12.5818 -15.3686 
-2.3615 -4.2995 -3.1425 -2.489 -3.2495 -3.8315 -3.952 -2.3345 -3.7075 -2.4285 -4.4515 -2.229 -4.783 0 -2.3615 -3.1425 -3.61 -3.115 -1.4985 -3.7075 -1.756 -1.4985 -4.4515 -2.4945 -1.934 -3.486 -3.4905 0 
-6.233 -7.0895 -3.7875 -5.8905 -5.762 -8.2735 -6.183001 -6.118 -6.3465 -7.304 -6.22 -7.352 -4.783 -2.3615 -4.868 -5.6525 -4.817 -4.2305 -4.6235 -5.318 -3.0405 -5.0235 -7.178 -4.2645 -5.8505 -5.894 -3.4905 
-8.403501 -7.6895 -7.079 -8.555 -10.1765 -10.354 -9.48 -8.505 -7.631001 -9.1085 -8.720501 -7.352 -7.2485 -4.868 -7.4685 -6.1845 -6.023 -6.7925 -5.845 -6.396501 -6.4645 -7.47 -8.535501 -8.0045 -8.776501 -5.894 
-9.127001 -11.1146 -9.682501 -13.2569 -12.257 -13.651 -11.8542 -9.712 -10.3535 -11.782 -8.720501 -9.475 -9.3555 -7.4685 -7.9485 -7.5105 -9.044001 -7.8 -6.502501 -7.0165 -8.1085 -9.05 -12.6291 -10.485 -8.776501 
-12.5969 -13.7181 -14.4172 -15.3374 -15.554 -16.0252 -13.0612 -12.6929 -13.027 -11.782 -11.1409 -11.634 -11.9816 -7.9485 -9.1945 -9.889001 -10.2985 -8.531 -7.028 -8.352 -9.1735 -13.1066 -15.1096 -10.485 
-4.2995 -1.7695 -3.6115 -3.8315 -2.4285 -3.7075 -1.756 -4.4515 -1.7695 -4.2615 -3.486 -4.2305 0 
-5.9175 -5.5385 -8.591001 -5.620501 -6.6425 -5.318 -6.289 -6.673 -4.7355 -8.709001 -7.74 -4.2305 
-10.177 -10.9208 -10.4425 -11.3349 -8.531 -6.5745 -8.2895 -9.530001 -9.243 -13.2512 -7.74 
-15.7153 -12.7723 -16.4217 -13.2234 -9.696001 -8.481501 -11.4305 -14.1891 -13.8372 -13.2512 
-17.5668 -18.7515 -18.3102 -14.3884 -10.705 -11.7809 -16.0896 -18.7833 -13.8372 
-5.2365 -2.4945 -3.115 -4.4515 -3.074 -3.486 -3.4905 -1.7565 -3.7075 
-6.852 -5.505 -7.891 -7.658 -7.5765 -5.894 -4.601 -5.7275 
-9.2615 -10.051 -11.4519 -12.4169 -10.375 -7.6745 -9.130001 
-13.8607 -13.8057 -16.2108 -15.2154 -12.1555 -12.1901 
-17.6154 -18.5646 -19.0093 -16.9959 -16.6711 
